 Al Density=2.6989 Thickness=0.2 microns
 Wavelength (nm), Transmission
   0.41000      0.95961    
   0.42918      0.95438    
   0.44836      0.94879    
   0.46754      0.94285    
   0.48672      0.93657    
   0.50590      0.92995    
   0.52508      0.92301    
   0.54426      0.91575    
   0.56344      0.90818    
   0.58262      0.90032    
   0.60180      0.89218    
   0.62098      0.88392    
   0.64016      0.87541    
   0.65934      0.86659    
   0.67852      0.85748    
   0.69770      0.84808    
   0.71688      0.83853    
   0.73606      0.82904    
   0.75524      0.81936    
   0.77442      0.80946    
   0.79360      0.79933    
   0.81278      0.98001    
   0.83196      0.97863    
   0.85114      0.97726    
   0.87032      0.97587    
   0.88950      0.97442    
   0.90868      0.97293    
   0.92786      0.97138    
   0.94704      0.96978    
   0.96622      0.96813    
   0.98540      0.96641    
    1.0046      0.96462    
    1.0238      0.96276    
    1.0429      0.96084    
    1.0621      0.95886    
    1.0813      0.95683    
    1.1005      0.95473    
    1.1197      0.95257    
    1.1388      0.95035    
    1.1580      0.94807    
    1.1772      0.94572    
    1.1964      0.94336    
    1.2156      0.94098    
    1.2347      0.93850    
    1.2539      0.93594    
    1.2731      0.93330    
    1.2923      0.93061    
    1.3115      0.92785    
    1.3306      0.92503    
    1.3498      0.92215    
    1.3690      0.91921    
    1.3882      0.91621    
    1.4074      0.91315    
    1.4265      0.91002    
    1.4457      0.90684    
    1.4649      0.90359    
    1.4841      0.90029    
    1.5033      0.89692    
    1.5224      0.89349    
    1.5416      0.89000    
    1.5608      0.88645    
    1.5800      0.88284    
    1.5992      0.87919    
    1.6183      0.87550    
    1.6375      0.87176    
    1.6567      0.86796    
    1.6759      0.86411    
    1.6951      0.86020    
    1.7142      0.85623    
    1.7334      0.85221    
    1.7526      0.84822    
    1.7718      0.84428    
    1.7910      0.84040    
    1.8101      0.83643    
    1.8293      0.83234    
    1.8485      0.82804    
    1.8677      0.82347    
    1.8869      0.81877    
    1.9060      0.81401    
    1.9252      0.80925    
    1.9444      0.80446    
    1.9636      0.79975    
    1.9828      0.79502    
    2.0019      0.79030    
    2.0211      0.78553    
    2.0403      0.78072    
    2.0595      0.77587    
    2.0787      0.77097    
    2.0978      0.76603    
    2.1170      0.76105    
    2.1362      0.75603    
    2.1554      0.75098    
    2.1746      0.74589    
    2.1937      0.74082    
    2.2129      0.73573    
    2.2321      0.73065    
    2.2513      0.72557    
    2.2705      0.72052    
    2.2896      0.71545    
    2.3088      0.71034    
    2.3280      0.70521    
    2.3472      0.70003    
    2.3664      0.69482    
    2.3855      0.68958    
    2.4047      0.68430    
    2.4239      0.67899    
    2.4431      0.67368    
    2.4623      0.66836    
    2.4814      0.66305    
    2.5006      0.65777    
    2.5198      0.65249    
    2.5390      0.64722    
    2.5582      0.64194    
    2.5773      0.63665    
    2.5965      0.63135    
    2.6157      0.62604    
    2.6349      0.62071    
    2.6541      0.61537    
    2.6732      0.61002    
    2.6924      0.60466    
    2.7116      0.59930    
    2.7308      0.59392    
    2.7500      0.58854    
    2.7691      0.58315    
    2.7883      0.57776    
    2.8075      0.57235    
    2.8267      0.56706    
    2.8459      0.56179    
    2.8650      0.55666    
    2.8842      0.55170    
    2.9034      0.54675    
    2.9226      0.54180    
    2.9418      0.53686    
    2.9609      0.53192    
    2.9801      0.52699    
    2.9993      0.52206    
    3.0185      0.51714    
    3.0377      0.51222    
    3.0568      0.50731    
    3.0760      0.50242    
    3.0952      0.49753    
    3.1144      0.49265    
    3.1336      0.48778    
    3.1527      0.48292    
    3.1719      0.47807    
    3.1911      0.47323    
    3.2103      0.46841    
    3.2295      0.46360    
    3.2486      0.45880    
    3.2678      0.45402    
    3.2870      0.44925    
    3.3062      0.44450    
    3.3254      0.43976    
    3.3445      0.43504    
    3.3637      0.43033    
    3.3829      0.42565    
    3.4021      0.42098    
    3.4213      0.41624    
    3.4404      0.41148    
    3.4596      0.40675    
    3.4788      0.40172    
    3.4980      0.39664    
    3.5172      0.39158    
    3.5363      0.38655    
    3.5555      0.38154    
    3.5747      0.37655    
    3.5939      0.37159    
    3.6131      0.36666    
    3.6322      0.36175    
    3.6514      0.35687    
    3.6706      0.35201    
    3.6898      0.34719    
    3.7090      0.34239    
    3.7281      0.33762    
    3.7473      0.33288    
    3.7665      0.32818    
    3.7857      0.32350    
    3.8049      0.31885    
    3.8240      0.31424    
    3.8432      0.30966    
    3.8624      0.30511    
    3.8816      0.30059    
    3.9008      0.29611    
    3.9199      0.29166    
    3.9391      0.28725    
    3.9583      0.28287    
    3.9775      0.27852    
    3.9967      0.27422    
    4.0158      0.26994    
    4.0350      0.26571    
    4.0542      0.26151    
    4.0734      0.25734    
    4.0926      0.25322    
    4.1117      0.24913    
    4.1309      0.24508    
    4.1501      0.24106    
    4.1693      0.23709    
    4.1885      0.23315    
    4.2076      0.22925    
    4.2268      0.22539    
    4.2460      0.22157    
    4.2652      0.21779    
    4.2844      0.21405    
    4.3035      0.21034    
    4.3227      0.20668    
    4.3419      0.20306    
    4.3611      0.19947    
    4.3803      0.19593    
    4.3994      0.19242    
    4.4186      0.18896    
    4.4378      0.18554    
    4.4570      0.18215    
    4.4762      0.17881    
    4.4953      0.17551    
    4.5145      0.17224    
    4.5337      0.16902    
    4.5529      0.16583    
    4.5721      0.16269    
    4.5912      0.15959    
    4.6104      0.15652    
    4.6296      0.15370    
    4.6488      0.15127    
    4.6680      0.14887    
    4.6871      0.14650    
    4.7063      0.14421    
    4.7255      0.14201    
    4.7447      0.13984    
    4.7639      0.13769    
    4.7830      0.13557    
    4.8022      0.13348    
    4.8214      0.13141    
    4.8406      0.12936    
    4.8598      0.12734    
    4.8789      0.12534    
    4.8981      0.12336    
    4.9173      0.12142    
    4.9365      0.11949    
    4.9557      0.11759    
    4.9748      0.11571    
    4.9940      0.11385    
    5.0132      0.11202    
    5.0324      0.11021    
    5.0516      0.10842    
    5.0707      0.10666    
    5.0899      0.10492    
    5.1091      0.10320    
    5.1283      0.10150    
    5.1475      0.99829E-01
    5.1666      0.98176E-01
    5.1858      0.96546E-01
    5.2050      0.94936E-01
    5.2242      0.93348E-01
    5.2434      0.91782E-01
    5.2625      0.90236E-01
    5.2817      0.88711E-01
    5.3009      0.87207E-01
    5.3201      0.85723E-01
    5.3393      0.84260E-01
    5.3584      0.82816E-01
    5.3776      0.81393E-01
    5.3968      0.79990E-01
    5.4160      0.78606E-01
    5.4352      0.77242E-01
    5.4543      0.75897E-01
    5.4735      0.74571E-01
    5.4927      0.73263E-01
    5.5119      0.71975E-01
    5.5311      0.70576E-01
    5.5502      0.69174E-01
    5.5694      0.67794E-01
    5.5886      0.66437E-01
    5.6078      0.65090E-01
    5.6270      0.63720E-01
    5.6461      0.62373E-01
    5.6653      0.61049E-01
    5.6845      0.59748E-01
    5.7037      0.58468E-01
    5.7229      0.57211E-01
    5.7420      0.55976E-01
    5.7612      0.54762E-01
    5.7804      0.53570E-01
    5.7996      0.52399E-01
    5.8188      0.51249E-01
    5.8379      0.50119E-01
    5.8571      0.49010E-01
    5.8763      0.47920E-01
    5.8955      0.46851E-01
    5.9147      0.45801E-01
    5.9338      0.44770E-01
    5.9530      0.43758E-01
    5.9722      0.42765E-01
    5.9914      0.41791E-01
    6.0106      0.40835E-01
    6.0297      0.39898E-01
    6.0489      0.38978E-01
    6.0681      0.38076E-01
    6.0873      0.37191E-01
    6.1065      0.36324E-01
    6.1256      0.35473E-01
    6.1448      0.34639E-01
    6.1640      0.33821E-01
    6.1832      0.33027E-01
    6.2024      0.32251E-01
    6.2215      0.31492E-01
    6.2407      0.30747E-01
    6.2599      0.30017E-01
    6.2791      0.29302E-01
    6.2983      0.28601E-01
    6.3174      0.27914E-01
    6.3366      0.27242E-01
    6.3558      0.26583E-01
    6.3750      0.25937E-01
    6.3942      0.25305E-01
    6.4133      0.24687E-01
    6.4325      0.24081E-01
    6.4517      0.23488E-01
    6.4709      0.22907E-01
    6.4901      0.22339E-01
    6.5092      0.21782E-01
    6.5284      0.21238E-01
    6.5476      0.20705E-01
    6.5668      0.20184E-01
    6.5860      0.19674E-01
    6.6051      0.19175E-01
    6.6243      0.18687E-01
    6.6435      0.18210E-01
    6.6627      0.17744E-01
    6.6819      0.17287E-01
    6.7010      0.16841E-01
    6.7202      0.16405E-01
    6.7394      0.15979E-01
    6.7586      0.15562E-01
    6.7778      0.15155E-01
    6.7969      0.14757E-01
    6.8161      0.14368E-01
    6.8353      0.13988E-01
    6.8545      0.13617E-01
    6.8737      0.13255E-01
    6.8928      0.12900E-01
    6.9120      0.12602E-01
    6.9312      0.12375E-01
    6.9504      0.12151E-01
    6.9696      0.11931E-01
    6.9887      0.11715E-01
    7.0079      0.11502E-01
    7.0271      0.11321E-01
    7.0463      0.11160E-01
    7.0655      0.11001E-01
    7.0846      0.10844E-01
    7.1038      0.10690E-01
    7.1230      0.10538E-01
    7.1422      0.10388E-01
    7.1614      0.10240E-01
    7.1805      0.10094E-01
    7.1997      0.99498E-02
    7.2189      0.98079E-02
    7.2381      0.96679E-02
    7.2573      0.95298E-02
    7.2764      0.93936E-02
    7.2956      0.92593E-02
    7.3148      0.91269E-02
    7.3340      0.89963E-02
    7.3532      0.88676E-02
    7.3723      0.87406E-02
    7.3915      0.86153E-02
    7.4107      0.84918E-02
    7.4299      0.83701E-02
    7.4491      0.82500E-02
    7.4682      0.81316E-02
    7.4874      0.80148E-02
    7.5066      0.78997E-02
    7.5258      0.77862E-02
    7.5450      0.76742E-02
    7.5641      0.75639E-02
    7.5833      0.74550E-02
    7.6025      0.73477E-02
    7.6217      0.72419E-02
    7.6409      0.71376E-02
    7.6600      0.70347E-02
    7.6792      0.69333E-02
    7.6984      0.68332E-02
    7.7176      0.67346E-02
    7.7368      0.66374E-02
    7.7559      0.65415E-02
    7.7751      0.64470E-02
    7.7943      0.63538E-02
    7.8135      0.62619E-02
    7.8327      0.61713E-02
    7.8518      0.60820E-02
    7.8710      0.59939E-02
    7.8902      0.59071E-02
    7.9094      0.58215E-02
    7.9286      0.57371E-02
    7.9477      0.56538E-02
    7.9669      0.55718E-02
    7.9861      0.54909E-02
    8.0053      0.54112E-02
    8.0245      0.53326E-02
    8.0436      0.52551E-02
    8.0628      0.51787E-02
    8.0820      0.51034E-02
    8.1012      0.50291E-02
    8.1204      0.49563E-02
    8.1395      0.48846E-02
    8.1587      0.48139E-02
    8.1779      0.47442E-02
    8.1971      0.46754E-02
    8.2163      0.46077E-02
    8.2354      0.45409E-02
    8.2546      0.44884E-02
    8.2738      0.44373E-02
    8.2930      0.43869E-02
    8.3122      0.43370E-02
    8.3313      0.42877E-02
    8.3505      0.42389E-02
    8.3697      0.41908E-02
    8.3889      0.41432E-02
    8.4081      0.40961E-02
    8.4272      0.40496E-02
    8.4464      0.40036E-02
    8.4656      0.39582E-02
    8.4848      0.39133E-02
    8.5040      0.38688E-02
    8.5231      0.38250E-02
    8.5423      0.37816E-02
    8.5615      0.37387E-02
    8.5807      0.36963E-02
    8.5999      0.36544E-02
    8.6190      0.36130E-02
    8.6382      0.35720E-02
    8.6574      0.35316E-02
    8.6766      0.34916E-02
    8.6958      0.34520E-02
    8.7149      0.34129E-02
    8.7341      0.33743E-02
    8.7533      0.33361E-02
    8.7725      0.32983E-02
    8.7917      0.32610E-02
    8.8108      0.32241E-02
    8.8300      0.31877E-02
    8.8492      0.31516E-02
    8.8684      0.31160E-02
    8.8876      0.30808E-02
    8.9067      0.30460E-02
    8.9259      0.30116E-02
    8.9451      0.29775E-02
    8.9643      0.29439E-02
    8.9835      0.29107E-02
    9.0026      0.28778E-02
    9.0218      0.28453E-02
    9.0410      0.28132E-02
    9.0602      0.27815E-02
    9.0794      0.27501E-02
    9.0985      0.27191E-02
    9.1177      0.26884E-02
    9.1369      0.26581E-02
    9.1561      0.26281E-02
    9.1753      0.25985E-02
    9.1944      0.25692E-02
    9.2136      0.25403E-02
    9.2328      0.25117E-02
    9.2520      0.24834E-02
    9.2712      0.24554E-02
    9.2903      0.24278E-02
    9.3095      0.24004E-02
    9.3287      0.23734E-02
    9.3479      0.23467E-02
    9.3671      0.23203E-02
    9.3862      0.22942E-02
    9.4054      0.22684E-02
    9.4246      0.22429E-02
    9.4438      0.22177E-02
    9.4630      0.21928E-02
    9.4821      0.21681E-02
    9.5013      0.21438E-02
    9.5205      0.21197E-02
    9.5397      0.20959E-02
    9.5589      0.20723E-02
    9.5780      0.20491E-02
    9.5972      0.20261E-02
    9.6164      0.20033E-02
    9.6356      0.19808E-02
    9.6548      0.19586E-02
    9.6739      0.19366E-02
    9.6931      0.19149E-02
    9.7123      0.18934E-02
    9.7315      0.18722E-02
    9.7507      0.18512E-02
    9.7698      0.18305E-02
    9.7890      0.18100E-02
    9.8082      0.17897E-02
    9.8274      0.17699E-02
    9.8466      0.17563E-02
    9.8657      0.17428E-02
    9.8849      0.17295E-02
    9.9041      0.17162E-02
    9.9233      0.17031E-02
    9.9425      0.16900E-02
    9.9616      0.16771E-02
    9.9808      0.16643E-02
    10.000      0.16676E-02
10.020      0.16764E-02
    10.040      0.16851E-02
    10.060      0.16940E-02
    10.080      0.17028E-02
    10.100      0.17116E-02
    10.120      0.17205E-02
    10.140      0.17294E-02
    10.160      0.17383E-02
    10.180      0.17472E-02
    10.200      0.17562E-02
    10.220      0.17652E-02
    10.240      0.17742E-02
    10.260      0.17832E-02
    10.280      0.17922E-02
    10.300      0.18013E-02
    10.320      0.18103E-02
    10.340      0.18194E-02
    10.360      0.18286E-02
    10.380      0.18377E-02
    10.400      0.18469E-02
    10.420      0.18560E-02
    10.440      0.18652E-02
    10.460      0.18745E-02
    10.480      0.18837E-02
    10.500      0.18930E-02
    10.520      0.19023E-02
    10.540      0.19116E-02
    10.560      0.19209E-02
    10.580      0.19303E-02
    10.600      0.19397E-02
    10.620      0.19491E-02
    10.640      0.19585E-02
    10.660      0.19679E-02
    10.680      0.19773E-02
    10.700      0.19868E-02
    10.720      0.19963E-02
    10.740      0.20058E-02
    10.760      0.20153E-02
    10.780      0.20248E-02
    10.800      0.20344E-02
    10.820      0.20440E-02
    10.840      0.20536E-02
    10.860      0.20632E-02
    10.880      0.20729E-02
    10.900      0.20825E-02
    10.920      0.20922E-02
    10.940      0.21019E-02
    10.960      0.21117E-02
    10.980      0.21214E-02
    11.000      0.21312E-02
    11.020      0.21410E-02
    11.040      0.21508E-02
    11.060      0.21606E-02
    11.080      0.21704E-02
    11.100      0.21803E-02
    11.120      0.21902E-02
    11.140      0.22001E-02
    11.160      0.22100E-02
    11.180      0.22200E-02
    11.200      0.22299E-02
    11.220      0.22399E-02
    11.240      0.22500E-02
    11.260      0.22600E-02
    11.280      0.22700E-02
    11.300      0.22801E-02
    11.320      0.22902E-02
    11.340      0.23003E-02
    11.360      0.23104E-02
    11.380      0.23206E-02
    11.400      0.23308E-02
    11.420      0.23409E-02
    11.440      0.23511E-02
    11.460      0.23614E-02
    11.480      0.23716E-02
    11.500      0.23819E-02
    11.520      0.23921E-02
    11.540      0.24024E-02
    11.560      0.24127E-02
    11.580      0.24231E-02
    11.600      0.24334E-02
    11.620      0.24438E-02
    11.640      0.24542E-02
    11.660      0.24646E-02
    11.680      0.24750E-02
    11.700      0.24854E-02
    11.720      0.24959E-02
    11.740      0.25063E-02
    11.760      0.25169E-02
    11.780      0.25274E-02
    11.800      0.25379E-02
    11.820      0.25485E-02
    11.840      0.25591E-02
    11.860      0.25697E-02
    11.880      0.25803E-02
    11.900      0.25909E-02
    11.920      0.26029E-02
    11.940      0.26173E-02
    11.960      0.26317E-02
    11.980      0.26461E-02
    12.000      0.26606E-02
    12.020      0.26751E-02
    12.040      0.26897E-02
    12.060      0.27043E-02
    12.080      0.27190E-02
    12.100      0.27337E-02
    12.120      0.27495E-02
    12.140      0.27658E-02
    12.160      0.27822E-02
    12.180      0.27986E-02
    12.200      0.28151E-02
    12.220      0.28317E-02
    12.240      0.28483E-02
    12.260      0.28649E-02
    12.280      0.28816E-02
    12.300      0.28984E-02
    12.320      0.29152E-02
    12.340      0.29320E-02
    12.360      0.29489E-02
    12.380      0.29659E-02
    12.400      0.29829E-02
    12.420      0.30000E-02
    12.440      0.30171E-02
    12.460      0.30342E-02
    12.480      0.30515E-02
    12.500      0.30687E-02
    12.520      0.30861E-02
    12.540      0.31035E-02
    12.560      0.31209E-02
    12.580      0.31384E-02
    12.600      0.31559E-02
    12.620      0.31735E-02
    12.640      0.31912E-02
    12.660      0.32089E-02
    12.680      0.32267E-02
    12.700      0.32445E-02
    12.720      0.32623E-02
    12.740      0.32802E-02
    12.760      0.32982E-02
    12.780      0.33162E-02
    12.800      0.33343E-02
    12.820      0.33524E-02
    12.840      0.33706E-02
    12.860      0.33888E-02
    12.880      0.34071E-02
    12.900      0.34254E-02
    12.920      0.34438E-02
    12.940      0.34622E-02
    12.960      0.34807E-02
    12.980      0.34993E-02
    13.000      0.35179E-02
    13.020      0.35365E-02
    13.040      0.35552E-02
    13.060      0.35740E-02
    13.080      0.35928E-02
    13.100      0.36116E-02
    13.120      0.36305E-02
    13.140      0.36495E-02
    13.160      0.36685E-02
    13.180      0.36876E-02
    13.200      0.37067E-02
    13.220      0.37259E-02
    13.240      0.37451E-02
    13.260      0.37644E-02
    13.280      0.37837E-02
    13.300      0.38031E-02
    13.320      0.38225E-02
    13.340      0.38420E-02
    13.360      0.38615E-02
    13.380      0.38811E-02
    13.400      0.39008E-02
    13.420      0.39205E-02
    13.440      0.39402E-02
    13.460      0.39600E-02
    13.480      0.39799E-02
    13.500      0.39998E-02
    13.520      0.40197E-02
    13.540      0.40397E-02
    13.560      0.40598E-02
    13.580      0.40799E-02
    13.600      0.41001E-02
    13.620      0.41203E-02
    13.640      0.41405E-02
    13.660      0.41608E-02
    13.680      0.41812E-02
    13.700      0.42016E-02
    13.720      0.42221E-02
    13.740      0.42426E-02
    13.760      0.42632E-02
    13.780      0.42838E-02
    13.800      0.43045E-02
    13.820      0.43252E-02
    13.840      0.43460E-02
    13.860      0.43668E-02
    13.880      0.43877E-02
    13.900      0.44086E-02
    13.920      0.44296E-02
    13.940      0.44506E-02
    13.960      0.44717E-02
    13.980      0.44929E-02
    14.000      0.45141E-02
    14.020      0.45353E-02
    14.040      0.45566E-02
    14.060      0.45779E-02
    14.080      0.45993E-02
    14.100      0.46208E-02
    14.120      0.46422E-02
    14.140      0.46638E-02
    14.160      0.46854E-02
    14.180      0.47070E-02
    14.200      0.47287E-02
    14.220      0.47625E-02
    14.240      0.48158E-02
    14.260      0.48696E-02
    14.280      0.49238E-02
    14.300      0.49784E-02
    14.320      0.50333E-02
    14.340      0.50888E-02
    14.360      0.51446E-02
    14.380      0.52008E-02
    14.400      0.52575E-02
    14.420      0.53146E-02
    14.440      0.53721E-02
    14.460      0.54565E-02
    14.480      0.55452E-02
    14.500      0.56350E-02
    14.520      0.57258E-02
    14.540      0.58177E-02
    14.560      0.59106E-02
    14.580      0.60046E-02
    14.600      0.60996E-02
    14.620      0.61958E-02
    14.640      0.62930E-02
    14.660      0.63912E-02
    14.680      0.64906E-02
    14.700      0.65911E-02
    14.720      0.66926E-02
    14.740      0.67953E-02
    14.760      0.68991E-02
    14.780      0.70040E-02
    14.800      0.71100E-02
    14.820      0.72172E-02
    14.840      0.73255E-02
    14.860      0.74350E-02
    14.880      0.75455E-02
    14.900      0.76573E-02
    14.920      0.77702E-02
    14.940      0.78843E-02
    14.960      0.79995E-02
    14.980      0.81159E-02
    15.000      0.82335E-02
    15.020      0.83523E-02
    15.040      0.84723E-02
    15.060      0.85935E-02
    15.080      0.87158E-02
    15.100      0.88394E-02
    15.120      0.89642E-02
    15.140      0.90902E-02
    15.160      0.92176E-02
    15.180      0.93468E-02
    15.200      0.94771E-02
    15.220      0.96088E-02
    15.240      0.97416E-02
    15.260      0.98757E-02
    15.280      0.10011E-01
    15.300      0.10148E-01
    15.320      0.10286E-01
    15.340      0.10425E-01
    15.360      0.10565E-01
    15.380      0.10707E-01
    15.400      0.10851E-01
    15.420      0.11008E-01
    15.440      0.11167E-01
    15.460      0.11328E-01
    15.480      0.11490E-01
    15.500      0.11654E-01
    15.520      0.11820E-01
    15.540      0.11987E-01
    15.560      0.12156E-01
    15.580      0.12326E-01
    15.600      0.12498E-01
    15.620      0.12671E-01
    15.640      0.12847E-01
    15.660      0.13023E-01
    15.680      0.13202E-01
    15.700      0.13382E-01
    15.720      0.13564E-01
    15.740      0.13747E-01
    15.760      0.13932E-01
    15.780      0.14119E-01
    15.800      0.14307E-01
    15.820      0.14497E-01
    15.840      0.14689E-01
    15.860      0.14882E-01
    15.880      0.15077E-01
    15.900      0.15274E-01
    15.920      0.15473E-01
    15.940      0.15673E-01
    15.960      0.15875E-01
    15.980      0.16078E-01
    16.000      0.16284E-01
    16.020      0.16491E-01
    16.040      0.16700E-01
    16.060      0.16910E-01
    16.080      0.17122E-01
    16.100      0.17336E-01
    16.120      0.17552E-01
    16.140      0.17769E-01
    16.160      0.17989E-01
    16.180      0.18210E-01
    16.200      0.18432E-01
    16.220      0.18657E-01
    16.240      0.18883E-01
    16.260      0.19111E-01
    16.280      0.19341E-01
    16.300      0.19572E-01
    16.320      0.19805E-01
    16.340      0.20040E-01
    16.360      0.20277E-01
    16.380      0.20516E-01
    16.400      0.20756E-01
    16.420      0.20998E-01
    16.440      0.21242E-01
    16.460      0.21488E-01
    16.480      0.21735E-01
    16.500      0.21985E-01
    16.520      0.22236E-01
    16.540      0.22489E-01
    16.560      0.22743E-01
    16.580      0.23000E-01
    16.600      0.23258E-01
    16.620      0.23518E-01
    16.640      0.23780E-01
    16.660      0.24044E-01
    16.680      0.24310E-01
    16.700      0.24577E-01
    16.720      0.24846E-01
    16.740      0.25117E-01
    16.760      0.25390E-01
    16.780      0.25665E-01
    16.800      0.25942E-01
    16.820      0.26220E-01
    16.840      0.26500E-01
    16.860      0.26782E-01
    16.880      0.27066E-01
    16.900      0.27352E-01
    16.920      0.27639E-01
    16.940      0.27929E-01
    16.960      0.28220E-01
    16.980      0.28513E-01
    17.000      0.28808E-01
    17.020      0.29104E-01
    17.040      0.11001    
    17.060      0.45688    
    17.080      0.73268    
    17.100      0.73294    
    17.120      0.73320    
    17.140      0.73347    
    17.160      0.73373    
    17.180      0.73399    
    17.200      0.73425    
    17.220      0.73451    
    17.240      0.73477    
    17.260      0.73503    
    17.280      0.73529    
    17.300      0.73555    
    17.320      0.73581    
    17.340      0.73607    
    17.360      0.73633    
    17.380      0.73658    
    17.400      0.73684    
    17.420      0.73710    
    17.440      0.73735    
    17.460      0.73761    
    17.480      0.73786    
    17.500      0.73812    
    17.520      0.73837    
    17.540      0.73862    
    17.560      0.73888    
    17.580      0.73913    
    17.600      0.73938    
    17.620      0.73963    
    17.640      0.73988    
    17.660      0.74013    
    17.680      0.74038    
    17.700      0.74063    
    17.720      0.74088    
    17.740      0.74113    
    17.760      0.74138    
    17.780      0.74162    
    17.800      0.74187    
    17.820      0.74212    
    17.840      0.74236    
    17.860      0.74261    
    17.880      0.74285    
    17.900      0.74310    
    17.920      0.74334    
    17.940      0.74359    
    17.960      0.74383    
    17.980      0.74407    
    18.000      0.74431    
    18.020      0.74456    
    18.040      0.74480    
    18.060      0.74504    
    18.080      0.74528    
    18.100      0.74553    
    18.120      0.74577    
    18.140      0.74602    
    18.160      0.74626    
    18.180      0.74651    
    18.200      0.74675    
    18.220      0.74700    
    18.240      0.74724    
    18.260      0.74748    
    18.280      0.74772    
    18.300      0.74797    
    18.320      0.74821    
    18.340      0.74845    
    18.360      0.74869    
    18.380      0.74895    
    18.400      0.74924    
    18.420      0.74953    
    18.440      0.74982    
    18.460      0.75011    
    18.480      0.75040    
    18.500      0.75069    
    18.520      0.75098    
    18.540      0.75126    
    18.560      0.75155    
    18.580      0.75183    
    18.600      0.75212    
    18.620      0.75240    
    18.640      0.75269    
    18.660      0.75297    
    18.680      0.75325    
    18.700      0.75354    
    18.720      0.75382    
    18.740      0.75410    
    18.760      0.75438    
    18.780      0.75466    
    18.800      0.75494    
    18.820      0.75522    
    18.840      0.75550    
    18.860      0.75577    
    18.880      0.75605    
    18.900      0.75633    
    18.920      0.75660    
    18.940      0.75688    
    18.960      0.75715    
    18.980      0.75743    
    19.000      0.75770    
    19.020      0.75798    
    19.040      0.75825    
    19.060      0.75852    
    19.080      0.75879    
    19.100      0.75906    
    19.120      0.75933    
    19.140      0.75960    
    19.160      0.75987    
    19.180      0.76014    
    19.200      0.76041    
    19.220      0.76068    
    19.240      0.76095    
    19.260      0.76121    
    19.280      0.76148    
    19.300      0.76171    
    19.320      0.76194    
    19.340      0.76217    
    19.360      0.76240    
    19.380      0.76263    
    19.400      0.76286    
    19.420      0.76309    
    19.440      0.76332    
    19.460      0.76354    
    19.480      0.76377    
    19.500      0.76400    
    19.520      0.76422    
    19.540      0.76445    
    19.560      0.76468    
    19.580      0.76490    
    19.600      0.76492    
    19.620      0.76473    
    19.640      0.76455    
    19.660      0.76437    
    19.680      0.76418    
    19.700      0.76400    
    19.720      0.76382    
    19.740      0.76364    
    19.760      0.76345    
    19.780      0.76327    
    19.800      0.76309    
    19.820      0.76290    
    19.840      0.76272    
    19.860      0.76254    
    19.880      0.76236    
    19.900      0.76217    
    19.920      0.76199    
    19.940      0.76181    
    19.960      0.76163    
    19.980      0.76144    
    20.000      0.76126    
20.040      0.76090    
    20.080      0.76053    
    20.120      0.76017    
    20.160      0.75981    
    20.200      0.75944    
    20.240      0.75908    
    20.280      0.75872    
    20.320      0.75836    
    20.360      0.75799    
    20.400      0.75763    
    20.440      0.75727    
    20.480      0.75691    
    20.520      0.75655    
    20.560      0.75618    
    20.600      0.75574    
    20.640      0.75530    
    20.680      0.75486    
    20.720      0.75442    
    20.760      0.75398    
    20.800      0.75354    
    20.840      0.75310    
    20.880      0.75266    
    20.920      0.75206    
    20.960      0.75141    
    21.000      0.75077    
    21.040      0.75012    
    21.080      0.74948    
    21.120      0.74884    
    21.160      0.74819    
    21.200      0.74755    
    21.240      0.74690    
    21.280      0.74626    
    21.320      0.74561    
    21.360      0.74497    
    21.400      0.74432    
    21.440      0.74368    
    21.480      0.74303    
    21.520      0.74239    
    21.560      0.74174    
    21.600      0.74109    
    21.640      0.74045    
    21.680      0.73980    
    21.720      0.73916    
    21.760      0.73851    
    21.800      0.73786    
    21.840      0.73722    
    21.880      0.73657    
    21.920      0.73592    
    21.960      0.73528    
    22.000      0.73463    
    22.040      0.73398    
    22.080      0.73334    
    22.120      0.73269    
    22.160      0.73204    
    22.200      0.73139    
    22.240      0.73075    
    22.280      0.73010    
    22.320      0.72945    
    22.360      0.72880    
    22.400      0.72816    
    22.440      0.72751    
    22.480      0.72686    
    22.520      0.72621    
    22.560      0.72556    
    22.600      0.72492    
    22.640      0.72427    
    22.680      0.72362    
    22.720      0.72297    
    22.760      0.72232    
    22.800      0.72167    
    22.840      0.72103    
    22.880      0.72038    
    22.920      0.71973    
    22.960      0.71908    
    23.000      0.71843    
    23.040      0.71771    
    23.080      0.71699    
    23.120      0.71627    
    23.160      0.71555    
    23.200      0.71483    
    23.240      0.71411    
    23.280      0.71339    
    23.320      0.71268    
    23.360      0.71195    
    23.400      0.71116    
    23.440      0.71033    
    23.480      0.70950    
    23.520      0.70867    
    23.560      0.70785    
    23.600      0.70702    
    23.640      0.70619    
    23.680      0.70536    
    23.720      0.70453    
    23.760      0.70370    
    23.800      0.70287    
    23.840      0.70203    
    23.880      0.70120    
    23.920      0.70037    
    23.960      0.69954    
    24.000      0.69870    
    24.040      0.69787    
    24.080      0.69704    
    24.120      0.69620    
    24.160      0.69537    
    24.200      0.69453    
    24.240      0.69370    
    24.280      0.69286    
    24.320      0.69203    
    24.360      0.69119    
    24.400      0.69035    
    24.440      0.68952    
    24.480      0.68868    
    24.520      0.68784    
    24.560      0.68700    
    24.600      0.68616    
    24.640      0.68533    
    24.680      0.68449    
    24.720      0.68365    
    24.760      0.68281    
    24.800      0.68197    
    24.840      0.68113    
    24.880      0.68029    
    24.920      0.67945    
    24.960      0.67860    
    25.000      0.67776    
    25.040      0.67692    
    25.080      0.67608    
    25.120      0.67524    
    25.160      0.67439    
    25.200      0.67355    
    25.240      0.67271    
    25.280      0.67186    
    25.320      0.67102    
    25.360      0.67017    
    25.400      0.66933    
    25.440      0.66849    
    25.480      0.66764    
    25.520      0.66680    
    25.560      0.66595    
    25.600      0.66510    
    25.640      0.66426    
    25.680      0.66341    
    25.720      0.66257    
    25.760      0.66184    
    25.800      0.66118    
    25.840      0.66051    
    25.880      0.65985    
    25.920      0.65918    
    25.960      0.65852    
    26.000      0.65785    
    26.040      0.65719    
    26.080      0.65652    
    26.120      0.65586    
    26.160      0.65531    
    26.200      0.65505    
    26.240      0.65479    
    26.280      0.65453    
    26.320      0.65427    
    26.360      0.65401    
    26.400      0.65375    
    26.440      0.65349    
    26.480      0.65324    
    26.520      0.65298    
    26.560      0.65272    
    26.600      0.65247    
    26.640      0.65221    
    26.680      0.65195    
    26.720      0.65170    
    26.760      0.65144    
    26.800      0.65118    
    26.840      0.65093    
    26.880      0.65067    
    26.920      0.65042    
    26.960      0.65016    
    27.000      0.64991    
    27.040      0.64966    
    27.080      0.64940    
    27.120      0.64915    
    27.160      0.64889    
    27.200      0.64864    
    27.240      0.64839    
    27.280      0.64813    
    27.320      0.64788    
    27.360      0.64763    
    27.400      0.64738    
    27.440      0.64713    
    27.480      0.64687    
    27.520      0.64662    
    27.560      0.64637    
    27.600      0.64612    
    27.640      0.64587    
    27.680      0.64562    
    27.720      0.64537    
    27.760      0.64512    
    27.800      0.64487    
    27.840      0.64462    
    27.880      0.64437    
    27.920      0.64412    
    27.960      0.64387    
    28.000      0.64363    
    28.040      0.64338    
    28.080      0.64313    
    28.120      0.64288    
    28.160      0.64263    
    28.200      0.64239    
    28.240      0.64214    
    28.280      0.64189    
    28.320      0.64165    
    28.360      0.64140    
    28.400      0.64115    
    28.440      0.64091    
    28.480      0.64066    
    28.520      0.64042    
    28.560      0.64017    
    28.600      0.63993    
    28.640      0.63968    
    28.680      0.63944    
    28.720      0.63919    
    28.760      0.63895    
    28.800      0.63870    
    28.840      0.63846    
    28.880      0.63822    
    28.920      0.63797    
    28.960      0.63773    
    29.000      0.63749    
    29.040      0.63724    
    29.080      0.63700    
    29.120      0.63676    
    29.160      0.63652    
    29.200      0.63628    
    29.240      0.63603    
    29.280      0.63579    
    29.320      0.63555    
    29.360      0.63531    
    29.400      0.63507    
    29.440      0.63483    
    29.480      0.63459    
    29.520      0.63435    
    29.560      0.63411    
    29.600      0.63387    
    29.640      0.63363    
    29.680      0.63339    
    29.720      0.63315    
    29.760      0.63292    
    29.800      0.63268    
    29.840      0.63244    
    29.880      0.63220    
    29.920      0.63196    
    29.960      0.63173    
    30.000      0.63149    
    30.040      0.63125    
    30.080      0.63101    
    30.120      0.63078    
    30.160      0.63054    
    30.200      0.63030    
    30.240      0.63014    
    30.280      0.63000    
    30.320      0.62986    
    30.360      0.62973    
    30.400      0.62959    
    30.440      0.62945    
    30.480      0.62932    
    30.520      0.62918    
    30.560      0.62904    
    30.600      0.62891    
    30.640      0.62877    
    30.680      0.62864    
    30.720      0.62851    
    30.760      0.62840    
    30.800      0.62829    
    30.840      0.62817    
    30.880      0.62806    
    30.920      0.62795    
    30.960      0.62784    
    31.000      0.62772    
    31.040      0.62761    
    31.080      0.62750    
    31.120      0.62739    
    31.160      0.62728    
    31.200      0.62717    
    31.240      0.62705    
    31.280      0.62694    
    31.320      0.62683    
    31.360      0.62672    
    31.400      0.62661    
    31.440      0.62650    
    31.480      0.62639    
    31.520      0.62628    
    31.560      0.62617    
    31.600      0.62606    
    31.640      0.62595    
    31.680      0.62584    
    31.720      0.62573    
    31.760      0.62562    
    31.800      0.62551    
    31.840      0.62540    
    31.880      0.62529    
    31.920      0.62518    
    31.960      0.62507    
    32.000      0.62496    
    32.040      0.62485    
    32.080      0.62474    
    32.120      0.62463    
    32.160      0.62453    
    32.200      0.62442    
    32.240      0.62431    
    32.280      0.62420    
    32.320      0.62409    
    32.360      0.62398    
    32.400      0.62388    
    32.440      0.62377    
    32.480      0.62366    
    32.520      0.62355    
    32.560      0.62344    
    32.600      0.62334    
    32.640      0.62323    
    32.680      0.62312    
    32.720      0.62301    
    32.760      0.62291    
    32.800      0.62280    
    32.840      0.62269    
    32.880      0.62259    
    32.920      0.62248    
    32.960      0.62237    
    33.000      0.62227    
    33.040      0.62216    
    33.080      0.62206    
    33.120      0.62195    
    33.160      0.62184    
    33.200      0.62174    
    33.240      0.62163    
    33.280      0.62153    
    33.320      0.62142    
    33.360      0.62132    
    33.400      0.62121    
    33.440      0.62111    
    33.480      0.62100    
    33.520      0.62090    
    33.560      0.62079    
    33.600      0.62069    
    33.640      0.62058    
    33.680      0.62048    
    33.720      0.62037    
    33.760      0.62027    
    33.800      0.62016    
    33.840      0.62006    
    33.880      0.61996    
    33.920      0.61985    
    33.960      0.61975    
    34.000      0.61965    
    34.040      0.61954    
    34.080      0.61944    
    34.120      0.61933    
    34.160      0.61923    
    34.200      0.61913    
    34.240      0.61903    
    34.280      0.61892    
    34.320      0.61882    
    34.360      0.61872    
    34.400      0.61861    
    34.440      0.61851    
    34.480      0.61841    
    34.520      0.61831    
    34.560      0.61820    
    34.600      0.61810    
    34.640      0.61800    
    34.680      0.61790    
    34.720      0.61780    
    34.760      0.61769    
    34.800      0.61759    
    34.840      0.61749    
    34.880      0.61739    
    34.920      0.61729    
    34.960      0.61719    
    35.000      0.61709    
    35.040      0.61698    
    35.080      0.61688    
    35.120      0.61678    
    35.160      0.61668    
    35.200      0.61658    
    35.240      0.61648    
    35.280      0.61638    
    35.320      0.61628    
    35.360      0.61618    
    35.400      0.61608    
    35.440      0.61598    
    35.480      0.61588    
    35.520      0.61578    
    35.560      0.61568    
    35.600      0.61558    
    35.640      0.61548    
    35.680      0.61538    
    35.720      0.61528    
    35.760      0.61518    
    35.800      0.61508    
    35.840      0.61498    
    35.880      0.61488    
    35.920      0.61478    
    35.960      0.61469    
    36.000      0.61459    
    36.040      0.61449    
    36.080      0.61439    
    36.120      0.61429    
    36.160      0.61419    
    36.200      0.61409    
    36.240      0.61400    
    36.280      0.61390    
    36.320      0.61380    
    36.360      0.61370    
    36.400      0.61360    
    36.440      0.61351    
    36.480      0.61341    
    36.520      0.61331    
    36.560      0.61321    
    36.600      0.61312    
    36.640      0.61302    
    36.680      0.61292    
    36.720      0.61282    
    36.760      0.61273    
    36.800      0.61263    
    36.840      0.61253    
    36.880      0.61244    
    36.920      0.61234    
    36.960      0.61224    
    37.000      0.61215    
    37.040      0.61205    
    37.080      0.61195    
    37.120      0.61186    
    37.160      0.61176    
    37.200      0.61166    
    37.240      0.61157    
    37.280      0.61147    
    37.320      0.61138    
    37.360      0.61128    
    37.400      0.61119    
    37.440      0.61109    
    37.480      0.61100    
    37.520      0.61090    
    37.560      0.61080    
    37.600      0.61071    
    37.640      0.61061    
    37.680      0.61052    
    37.720      0.61042    
    37.760      0.61033    
    37.800      0.61023    
    37.840      0.61020    
    37.880      0.61022    
    37.920      0.61025    
    37.960      0.61027    
    38.000      0.61030    
    38.040      0.61032    
    38.080      0.61035    
    38.120      0.61037    
    38.160      0.61040    
    38.200      0.61042    
    38.240      0.61044    
    38.280      0.61047    
    38.320      0.61049    
    38.360      0.61052    
    38.400      0.61054    
    38.440      0.61057    
    38.480      0.61062    
    38.520      0.61068    
    38.560      0.61073    
    38.600      0.61078    
    38.640      0.61083    
    38.680      0.61088    
    38.720      0.61094    
    38.760      0.61099    
    38.800      0.61104    
    38.840      0.61109    
    38.880      0.61114    
    38.920      0.61119    
    38.960      0.61125    
    39.000      0.61130    
    39.040      0.61135    
    39.080      0.61140    
    39.120      0.61145    
    39.160      0.61150    
    39.200      0.61155    
    39.240      0.61160    
    39.280      0.61166    
    39.320      0.61171    
    39.360      0.61176    
    39.400      0.61181    
    39.440      0.61186    
    39.480      0.61191    
    39.520      0.61196    
    39.560      0.61201    
    39.600      0.61206    
    39.640      0.61211    
    39.680      0.61216    
    39.720      0.61221    
    39.760      0.61226    
    39.800      0.61231    
    39.840      0.61236    
    39.880      0.61241    
    39.920      0.61246    
    39.960      0.61251    
    40.000      0.61256 
40.120      0.61271    
    40.240      0.61286    
    40.360      0.61301    
    40.480      0.61316    
    40.600      0.61331    
    40.720      0.61346    
    40.840      0.61360    
    40.960      0.61375    
    41.080      0.61389    
    41.200      0.61404    
    41.320      0.61418    
    41.440      0.61433    
    41.560      0.61447    
    41.680      0.61462    
    41.800      0.61476    
    41.920      0.61490    
    42.040      0.61505    
    42.160      0.61519    
    42.280      0.61533    
    42.400      0.61547    
    42.520      0.61561    
    42.640      0.61575    
    42.760      0.61589    
    42.880      0.61603    
    43.000      0.61617    
    43.120      0.61631    
    43.240      0.61644    
    43.360      0.61658    
    43.480      0.61672    
    43.600      0.61686    
    43.720      0.61699    
    43.840      0.61713    
    43.960      0.61726    
    44.080      0.61740    
    44.200      0.61753    
    44.320      0.61767    
    44.440      0.61780    
    44.560      0.61794    
    44.680      0.61807    
    44.800      0.61820    
    44.920      0.61833    
    45.040      0.61847    
    45.160      0.61860    
    45.280      0.61873    
    45.400      0.61886    
    45.520      0.61899    
    45.640      0.61912    
    45.760      0.61925    
    45.880      0.61938    
    46.000      0.61951    
    46.120      0.61964    
    46.240      0.61977    
    46.360      0.61989    
    46.480      0.62002    
    46.600      0.62015    
    46.720      0.62028    
    46.840      0.62040    
    46.960      0.62053    
    47.080      0.62065    
    47.200      0.62078    
    47.320      0.62091    
    47.440      0.62103    
    47.560      0.62115    
    47.680      0.62128    
    47.800      0.62140    
    47.920      0.62153    
    48.040      0.62165    
    48.160      0.62192    
    48.280      0.62242    
    48.400      0.62291    
    48.520      0.62340    
    48.640      0.62389    
    48.760      0.62438    
    48.880      0.62487    
    49.000      0.62543    
    49.120      0.62599    
    49.240      0.62655    
    49.360      0.62711    
    49.480      0.62767    
    49.600      0.62822    
    49.720      0.62877    
    49.840      0.62932    
    49.960      0.62987    
    50.080      0.63042    
    50.200      0.63097    
    50.320      0.63151    
    50.440      0.63205    
    50.560      0.63259    
    50.680      0.63313    
    50.800      0.63367    
    50.920      0.63420    
    51.040      0.63473    
    51.160      0.63527    
    51.280      0.63579    
    51.400      0.63632    
    51.520      0.63685    
    51.640      0.63737    
    51.760      0.63789    
    51.880      0.63842    
    52.000      0.63893    
    52.120      0.63945    
    52.240      0.63997    
    52.360      0.64048    
    52.480      0.64099    
    52.600      0.64150    
    52.720      0.64201    
    52.840      0.64252    
    52.960      0.64302    
    53.080      0.64325    
    53.200      0.64344    
    53.320      0.64362    
    53.440      0.64381    
    53.560      0.64400    
    53.680      0.64419    
    53.800      0.64437    
    53.920      0.64428    
    54.040      0.64410    
    54.160      0.64392    
    54.280      0.64374    
    54.400      0.64356    
    54.520      0.64338    
    54.640      0.64319    
    54.760      0.64301    
    54.880      0.64283    
    55.000      0.64265    
    55.120      0.64247    
    55.240      0.64229    
    55.360      0.64212    
    55.480      0.64194    
    55.600      0.64176    
    55.720      0.64158    
    55.840      0.64140    
    55.960      0.64123    
    56.080      0.64105    
    56.200      0.64087    
    56.320      0.64070    
    56.440      0.64052    
    56.560      0.64035    
    56.680      0.64017    
    56.800      0.63999    
    56.920      0.63982    
    57.040      0.63965    
    57.160      0.63947    
    57.280      0.63930    
    57.400      0.63912    
    57.520      0.63895    
    57.640      0.63878    
    57.760      0.63860    
    57.880      0.63843    
    58.000      0.63826    
    58.120      0.63809    
    58.240      0.63792    
    58.360      0.63775    
    58.480      0.63757    
    58.600      0.63740    
    58.720      0.63723    
    58.840      0.63706    
    58.960      0.63689    
    59.080      0.63673    
    59.200      0.63656    
    59.320      0.63639    
    59.440      0.63622    
    59.560      0.63605    
    59.680      0.63588    
    59.800      0.63572    
    59.920      0.63555    
    60.040      0.63538    
    60.160      0.63521    
    60.280      0.63505    
    60.400      0.63488    
    60.520      0.63472    
    60.640      0.63455    
    60.760      0.63438    
    60.880      0.63422    
    61.000      0.63406    
    61.120      0.63389    
    61.240      0.63315    
    61.360      0.63112    
    61.480      0.62910    
    61.600      0.62707    
    61.720      0.62504    
    61.840      0.62300    
    61.960      0.62096    
    62.080      0.61892    
    62.200      0.61685    
    62.320      0.61445    
    62.440      0.61205    
    62.560      0.60965    
    62.680      0.60723    
    62.800      0.60482    
    62.920      0.60240    
    63.040      0.59997    
    63.160      0.59754    
    63.280      0.59510    
    63.400      0.59266    
    63.520      0.59022    
    63.640      0.58777    
    63.760      0.58531    
    63.880      0.58286    
    64.000      0.58039    
    64.120      0.57793    
    64.240      0.57546    
    64.360      0.57298    
    64.480      0.57050    
    64.600      0.56802    
    64.720      0.56554    
    64.840      0.56305    
    64.960      0.56055    
    65.080      0.55806    
    65.200      0.55556    
    65.320      0.55306    
    65.440      0.55056    
    65.560      0.54806    
    65.680      0.54555    
    65.800      0.54305    
    65.920      0.54054    
    66.040      0.53803    
    66.160      0.53551    
    66.280      0.53299    
    66.400      0.53059    
    66.520      0.52824    
    66.640      0.52588    
    66.760      0.52353    
    66.880      0.52117    
    67.000      0.51881    
    67.120      0.51645    
    67.240      0.51409    
    67.360      0.51172    
    67.480      0.50936    
    67.600      0.50700    
    67.720      0.50463    
    67.840      0.50226    
    67.960      0.49990    
    68.080      0.49753    
    68.200      0.49516    
    68.320      0.49279    
    68.440      0.49042    
    68.560      0.48805    
    68.680      0.48568    
    68.800      0.48331    
    68.920      0.48093    
    69.040      0.47856    
    69.160      0.47619    
    69.280      0.47382    
    69.400      0.47145    
    69.520      0.46908    
    69.640      0.46670    
    69.760      0.46433    
    69.880      0.46196    
    70.000      0.45959    
    70.120      0.45722    
    70.240      0.45485    
    70.360      0.45248    
    70.480      0.45012    
    70.600      0.44775    
    70.720      0.44530    
    70.840      0.44192    
    70.960      0.43854    
    71.080      0.43515    
    71.200      0.43177    
    71.320      0.42839    
    71.440      0.42501    
    71.560      0.42162    
    71.680      0.41825    
    71.800      0.41487    
    71.920      0.41131    
    72.040      0.40759    
    72.160      0.40388    
    72.280      0.40016    
    72.400      0.39646    
    72.520      0.39275    
    72.640      0.38905    
    72.760      0.38536    
    72.880      0.38166    
    73.000      0.37798    
    73.120      0.37425    
    73.240      0.37053    
    73.360      0.36682    
    73.480      0.36311    
    73.600      0.35940    
    73.720      0.35571    
    73.840      0.35202    
    73.960      0.34834    
    74.080      0.34466    
    74.200      0.34095    
    74.320      0.33495    
    74.440      0.32896    
    74.560      0.32300    
    74.680      0.31706    
    74.800      0.31115    
    74.920      0.30526    
    75.040      0.29940    
    75.160      0.29356    
    75.280      0.28776    
    75.400      0.28199    
    75.520      0.27632    
    75.640      0.27068    
    75.760      0.26508    
    75.880      0.25951    
    76.000      0.25399    
    76.120      0.24851    
    76.240      0.24306    
    76.360      0.23767    
    76.480      0.23232    
    76.600      0.22701    
    76.720      0.22211    
    76.840      0.21730    
    76.960      0.21254    
    77.080      0.20783    
    77.200      0.20316    
    77.320      0.19854    
    77.440      0.19396    
    77.560      0.18944    
    77.680      0.18496    
    77.800      0.18054    
    77.920      0.17616    
    78.040      0.17184    
    78.160      0.16757    
    78.280      0.16335    
    78.400      0.15919    
    78.520      0.15509    
    78.640      0.15104    
    78.760      0.14704    
    78.880      0.14311    
    79.000      0.13923    
    79.120      0.13538    
    79.240      0.13074    
    79.360      0.12618    
    79.480      0.12172    
    79.600      0.11735    
    79.720      0.11307    
    79.840      0.10888    
    79.960      0.10478    
    80.080      0.10078    
    80.200      0.96874E-01
    80.320      0.93059E-01
    80.440      0.88147E-01
    80.560      0.81498E-01
    80.680      0.75170E-01
    80.800      0.69161E-01
    80.920      0.63470E-01
    81.040      0.58095E-01
    81.160      0.53031E-01
    81.280      0.48274E-01
    81.400      0.43819E-01
    81.520      0.39658E-01
    81.640      0.35783E-01
    81.760      0.31825E-01
    81.880      0.27911E-01
    82.000      0.24362E-01
    82.120      0.21159E-01
    82.240      0.18283E-01
    82.360      0.15714E-01
    82.480      0.13432E-01
    82.600      0.11416E-01
    82.720      0.96461E-02
    82.840      0.81010E-02
    82.960      0.67607E-02
    83.080      0.55811E-02
    83.200      0.45565E-02
    83.320      0.36917E-02
    83.440      0.29676E-02
    83.560      0.23661E-02
    83.680      0.18706E-02
    83.800      0.14659E-02
    83.920      0.11384E-02
    84.040      0.87574E-03
    84.160      0.66718E-03
    84.280      0.50315E-03
    84.400      0.38660E-03
    84.520      0.31201E-03
    84.640      0.25044E-03
    84.760      0.19987E-03
    84.880      0.15860E-03
    85.000      0.12510E-03
    85.120      0.98076E-04
    85.240      0.76417E-04
    85.360      0.59158E-04
    85.480      0.45501E-04
    85.600      0.34763E-04
    85.720      0.26377E-04
    85.840      0.23946E-04
    85.960      0.21862E-04
    86.080      0.19947E-04
    86.200      0.18188E-04
    86.320      0.16573E-04
    86.440      0.15092E-04
    86.560      0.13734E-04
    86.680      0.12490E-04
    86.800      0.11350E-04
    86.920      0.10308E-04
    87.040      0.93551E-05
    87.160      0.86101E-05
    87.280      0.80887E-05
    87.400      0.75969E-05
    87.520      0.71333E-05
    87.640      0.66963E-05
    87.760      0.62845E-05
    87.880      0.58966E-05
    88.000      0.55312E-05
    88.120      0.51872E-05
    88.240      0.48633E-05
    88.360      0.45584E-05
    88.480      0.42716E-05
    88.600      0.40081E-05
    88.720      0.37627E-05
    88.840      0.35315E-05
    88.960      0.33137E-05
    89.080      0.31086E-05
    89.200      0.29156E-05
    89.320      0.27338E-05
    89.440      0.25628E-05
    89.560      0.24019E-05
    89.680      0.22506E-05
    89.800      0.21083E-05
    89.920      0.19745E-05
    90.040      0.18599E-05
    90.160      0.17553E-05
    90.280      0.16562E-05
    90.400      0.15625E-05
    90.520      0.14739E-05
    90.640      0.13900E-05
    90.760      0.13106E-05
    90.880      0.12356E-05
    91.000      0.11647E-05
    91.120      0.10976E-05
    91.240      0.10342E-05
    91.360      0.97431E-06
    91.480      0.92009E-06
    91.600      0.87016E-06
    91.720      0.82281E-06
    91.840      0.77793E-06
    91.960      0.73538E-06
    92.080      0.69506E-06
    92.200      0.65685E-06
    92.320      0.62064E-06
    92.440      0.58634E-06
    92.560      0.55385E-06
    92.680      0.52308E-06
    92.800      0.49395E-06
    92.920      0.46803E-06
    93.040      0.44723E-06
    93.160      0.42732E-06
    93.280      0.40825E-06
    93.400      0.39001E-06
    93.520      0.37255E-06
    93.640      0.35585E-06
    93.760      0.33986E-06
    93.880      0.32457E-06
    94.000      0.30994E-06
    94.120      0.29594E-06
    94.240      0.28255E-06
    94.360      0.26974E-06
    94.480      0.25773E-06
    94.600      0.24630E-06
    94.720      0.23536E-06
    94.840      0.22489E-06
    94.960      0.21486E-06
    95.080      0.20527E-06
    95.200      0.19609E-06
    95.320      0.18730E-06
    95.440      0.17890E-06
    95.560      0.17086E-06
    95.680      0.16317E-06
    95.800      0.15581E-06
    95.920      0.14877E-06
    96.040      0.14204E-06
    96.160      0.13560E-06
    96.280      0.12945E-06
    96.400      0.12356E-06
    96.520      0.11793E-06
    96.640      0.11255E-06
    96.760      0.10741E-06
    96.880      0.10249E-06
    97.000      0.97796E-07
    97.120      0.93306E-07
    97.240      0.89014E-07
    97.360      0.84913E-07
    97.480      0.81022E-07
    97.600      0.77485E-07
    97.720      0.74097E-07
    97.840      0.70852E-07
    97.960      0.67745E-07
    98.080      0.64770E-07
    98.200      0.61921E-07
    98.320      0.59194E-07
    98.440      0.56583E-07
    98.560      0.54084E-07
    98.680      0.51691E-07
    98.800      0.49401E-07
    98.920      0.47210E-07
    99.040      0.45112E-07
    99.160      0.43561E-07
    99.280      0.42066E-07
    99.400      0.40620E-07
    99.520      0.39223E-07
    99.640      0.37873E-07
    99.760      0.36568E-07
    99.880      0.35307E-07
    100.00      0.34089E-07   
