 Zr Density=6.506 Thickness=0.298 microns
 Wavelength (nm), Transmission
   0.41000      0.71093    
   0.42918      0.68227    
   0.44836      0.65323    
   0.46754      0.62402    
   0.48672      0.59484    
   0.50590      0.60740    
   0.52508      0.58005    
   0.54426      0.64888    
   0.56344      0.88198    
   0.58262      0.87254    
   0.60180      0.86278    
   0.62098      0.85279    
   0.64016      0.84247    
   0.65934      0.83183    
   0.67852      0.82088    
   0.69770      0.80964    
   0.71688      0.79815    
   0.73606      0.78650    
   0.75524      0.77458    
   0.77442      0.76244    
   0.79360      0.75005    
   0.81278      0.73746    
   0.83196      0.72469    
   0.85114      0.71181    
   0.87032      0.69878    
   0.88950      0.68560    
   0.90868      0.67229    
   0.92786      0.65885    
   0.94704      0.64341    
   0.96622      0.62664    
   0.98540      0.61015    
    1.0046      0.59413    
    1.0238      0.57830    
    1.0429      0.56369    
    1.0621      0.54972    
    1.0813      0.53587    
    1.1005      0.52275    
    1.1197      0.50969    
    1.1388      0.49639    
    1.1580      0.48211    
    1.1772      0.46740    
    1.1964      0.45279    
    1.2156      0.43937    
    1.2347      0.42652    
    1.2539      0.41383    
    1.2731      0.40128    
    1.2923      0.38888    
    1.3115      0.37662    
    1.3306      0.36435    
    1.3498      0.35157    
    1.3690      0.33898    
    1.3882      0.32661    
    1.4074      0.31445    
    1.4265      0.30253    
    1.4457      0.29083    
    1.4649      0.28031    
    1.4841      0.27052    
    1.5033      0.26095    
    1.5224      0.25159    
    1.5416      0.24244    
    1.5608      0.23350    
    1.5800      0.22478    
    1.5992      0.21626    
    1.6183      0.20807    
    1.6375      0.20029    
    1.6567      0.19290    
    1.6759      0.18570    
    1.6951      0.17869    
    1.7142      0.17188    
    1.7334      0.16525    
    1.7526      0.15881    
    1.7718      0.15255    
    1.7910      0.14648    
    1.8101      0.14059    
    1.8293      0.13488    
    1.8485      0.12934    
    1.8677      0.12398    
    1.8869      0.11879    
    1.9060      0.11376    
    1.9252      0.10890    
    1.9444      0.10419    
    1.9636      0.99599E-01
    1.9828      0.95147E-01
    2.0019      0.90852E-01
    2.0211      0.86711E-01
    2.0403      0.82722E-01
    2.0595      0.78880E-01
    2.0787      0.75182E-01
    2.0978      0.71626E-01
    2.1170      0.68207E-01
    2.1362      0.64922E-01
    2.1554      0.61766E-01
    2.1746      0.58738E-01
    2.1937      0.55832E-01
    2.2129      0.53046E-01
    2.2321      0.50376E-01
    2.2513      0.47819E-01
    2.2705      0.45371E-01
    2.2896      0.43029E-01
    2.3088      0.41169E-01
    2.3280      0.39504E-01
    2.3472      0.37961E-01
    2.3664      0.36473E-01
    2.3855      0.35038E-01
    2.4047      0.33654E-01
    2.4239      0.32320E-01
    2.4431      0.31033E-01
    2.4623      0.29794E-01
    2.4814      0.28599E-01
    2.5006      0.27448E-01
    2.5198      0.26339E-01
    2.5390      0.25271E-01
    2.5582      0.24243E-01
    2.5773      0.23252E-01
    2.5965      0.22299E-01
    2.6157      0.21382E-01
    2.6349      0.20469E-01
    2.6541      0.19583E-01
    2.6732      0.18721E-01
    2.6924      0.17889E-01
    2.7116      0.17090E-01
    2.7308      0.16324E-01
    2.7500      0.15590E-01
    2.7691      0.14885E-01
    2.7883      0.14237E-01
    2.8075      0.13645E-01
    2.8267      0.13126E-01
    2.8459      0.12734E-01
    2.8650      0.12353E-01
    2.8842      0.11984E-01
    2.9034      0.11625E-01
    2.9226      0.11277E-01
    2.9418      0.10940E-01
    2.9609      0.10612E-01
    2.9801      0.10294E-01
    2.9993      0.99861E-02
    3.0185      0.96869E-02
    3.0377      0.93981E-02
    3.0568      0.91407E-02
    3.0760      0.88905E-02
    3.0952      0.86876E-02
    3.1144      0.85060E-02
    3.1336      0.83286E-02
    3.1527      0.81552E-02
    3.1719      0.79857E-02
    3.1911      0.78199E-02
    3.2103      0.76579E-02
    3.2295      0.74995E-02
    3.2486      0.73447E-02
    3.2678      0.71933E-02
    3.2870      0.70040E-02
    3.3062      0.68173E-02
    3.3254      0.65911E-02
    3.3445      0.63105E-02
    3.3637      0.60411E-02
    3.3829      0.57824E-02
    3.4021      0.55342E-02
    3.4213      0.52959E-02
    3.4404      0.50672E-02
    3.4596      0.48479E-02
    3.4788      0.46375E-02
    3.4980      0.44356E-02
    3.5172      0.42421E-02
    3.5363      0.40564E-02
    3.5555      0.38785E-02
    3.5747      0.37198E-02
    3.5939      0.36224E-02
    3.6131      0.35277E-02
    3.6322      0.35338E-02
    3.6514      0.36871E-02
    3.6706      0.38449E-02
    3.6898      0.40074E-02
    3.7090      0.41746E-02
    3.7281      0.43465E-02
    3.7473      0.45233E-02
    3.7665      0.47049E-02
    3.7857      0.48915E-02
    3.8049      0.50281E-02
    3.8240      0.51579E-02
    3.8432      0.52898E-02
    3.8624      0.52399E-02
    3.8816      0.51759E-02
    3.9008      0.51129E-02
    3.9199      0.50508E-02
    3.9391      0.49897E-02
    3.9583      0.49294E-02
    3.9775      0.48857E-02
    3.9967      0.48439E-02
    4.0158      0.48025E-02
    4.0350      0.48256E-02
    4.0542      0.48594E-02
    4.0734      0.48933E-02
    4.0926      0.49272E-02
    4.1117      0.49613E-02
    4.1309      0.49953E-02
    4.1501      0.50293E-02
    4.1693      0.50633E-02
    4.1885      0.50973E-02
    4.2076      0.50908E-02
    4.2268      0.50181E-02
    4.2460      0.49466E-02
    4.2652      0.48756E-02
    4.2844      0.48016E-02
    4.3035      0.47289E-02
    4.3227      0.46573E-02
    4.3419      0.45870E-02
    4.3611      0.45178E-02
    4.3803      0.44498E-02
    4.3994      0.43868E-02
    4.4186      0.43290E-02
    4.4378      0.42720E-02
    4.4570      0.42190E-02
    4.4762      0.42071E-02
    4.4953      0.41953E-02
    4.5145      0.41835E-02
    4.5337      0.41718E-02
    4.5529      0.41602E-02
    4.5721      0.41486E-02
    4.5912      0.41372E-02
    4.6104      0.41258E-02
    4.6296      0.41145E-02
    4.6488      0.41033E-02
    4.6680      0.41281E-02
    4.6871      0.41814E-02
    4.7063      0.42350E-02
    4.7255      0.42889E-02
    4.7447      0.43461E-02
    4.7639      0.44038E-02
    4.7830      0.44620E-02
    4.8022      0.45205E-02
    4.8214      0.45794E-02
    4.8406      0.46387E-02
    4.8598      0.46984E-02
    4.8789      0.47562E-02
    4.8981      0.48127E-02
    4.9173      0.48695E-02
    4.9365      0.49266E-02
    4.9557      0.49609E-02
    4.9748      0.49896E-02
    4.9940      0.50184E-02
    5.0132      0.50472E-02
    5.0324      0.50760E-02
    5.0516      0.51048E-02
    5.0707      0.51337E-02
    5.0899      0.51755E-02
    5.1091      0.53434E-02
    5.1283      0.55149E-02
    5.1475      0.56903E-02
    5.1666      0.59048E-02
    5.1858      0.63279E-02
    5.2050      0.67733E-02
    5.2242      0.72417E-02
    5.2434      0.77299E-02
    5.2625      0.82204E-02
    5.2817      0.87333E-02
    5.3009      0.92692E-02
    5.3201      0.98207E-02
    5.3393      0.10318E-01
    5.3584      0.10833E-01
    5.3776      0.11366E-01
    5.3968      0.11917E-01
    5.4160      0.12487E-01
    5.4352      0.13075E-01
    5.4543      0.13682E-01
    5.4735      0.14309E-01
    5.4927      0.14887E-01
    5.5119      0.15464E-01
    5.5311      0.16054E-01
    5.5502      0.16660E-01
    5.5694      0.17209E-01
    5.5886      0.17708E-01
    5.6078      0.18217E-01
    5.6270      0.18735E-01
    5.6461      0.19263E-01
    5.6653      0.19799E-01
    5.6845      0.20344E-01
    5.7037      0.20898E-01
    5.7229      0.21462E-01
    5.7420      0.22035E-01
    5.7612      0.22617E-01
    5.7804      0.23209E-01
    5.7996      0.23810E-01
    5.8188      0.24875E-01
    5.8379      0.26577E-01
    5.8571      0.28355E-01
    5.8763      0.30210E-01
    5.8955      0.32145E-01
    5.9147      0.35318E-01
    5.9338      0.38775E-01
    5.9530      0.42446E-01
    5.9722      0.46335E-01
    5.9914      0.51290E-01
    6.0106      0.58109E-01
    6.0297      0.65466E-01
    6.0489      0.73363E-01
    6.0681      0.81792E-01
    6.0873      0.90753E-01
    6.1065      0.10023    
    6.1256      0.11022    
    6.1448      0.12069    
    6.1640      0.13160    
    6.1832      0.14207    
    6.2024      0.15291    
    6.2215      0.16408    
    6.2407      0.17556    
    6.2599      0.18534    
    6.2791      0.18947    
    6.2983      0.19363    
    6.3174      0.19780    
    6.3366      0.20200    
    6.3558      0.20622    
    6.3750      0.21046    
    6.3942      0.21472    
    6.4133      0.21899    
    6.4325      0.22328    
    6.4517      0.22896    
    6.4709      0.23610    
    6.4901      0.24329    
    6.5092      0.25052    
    6.5284      0.25778    
    6.5476      0.26558    
    6.5668      0.27391    
    6.5860      0.28226    
    6.6051      0.29065    
    6.6243      0.29906    
    6.6435      0.30699    
    6.6627      0.31429    
    6.6819      0.32159    
    6.7010      0.32889    
    6.7202      0.33618    
    6.7394      0.34127    
    6.7586      0.34123    
    6.7778      0.34120    
    6.7969      0.34116    
    6.8161      0.34113    
    6.8353      0.34109    
    6.8545      0.34106    
    6.8737      0.34103    
    6.8928      0.34099    
    6.9120      0.34096    
    6.9312      0.34092    
    6.9504      0.35163    
    6.9696      0.36518    
    6.9887      0.37870    
    7.0079      0.39217    
    7.0271      0.40556    
    7.0463      0.40933    
    7.0655      0.40895    
    7.0846      0.40856    
    7.1038      0.40818    
    7.1230      0.40779    
    7.1422      0.40741    
    7.1614      0.40703    
    7.1805      0.40665    
    7.1997      0.40627    
    7.2189      0.40589    
    7.2381      0.40551    
    7.2573      0.40514    
    7.2764      0.40476    
    7.2956      0.40439    
    7.3148      0.40401    
    7.3340      0.40364    
    7.3532      0.40327    
    7.3723      0.40290    
    7.3915      0.40253    
    7.4107      0.40216    
    7.4299      0.40179    
    7.4491      0.40143    
    7.4682      0.40106    
    7.4874      0.40069    
    7.5066      0.40033    
    7.5258      0.39997    
    7.5450      0.39960    
    7.5641      0.39924    
    7.5833      0.39888    
    7.6025      0.39852    
    7.6217      0.39816    
    7.6409      0.39780    
    7.6600      0.39745    
    7.6792      0.39709    
    7.6984      0.39673    
    7.7176      0.39638    
    7.7368      0.39603    
    7.7559      0.39567    
    7.7751      0.39532    
    7.7943      0.39497    
    7.8135      0.39462    
    7.8327      0.39427    
    7.8518      0.39392    
    7.8710      0.39357    
    7.8902      0.39323    
    7.9094      0.39288    
    7.9286      0.39253    
    7.9477      0.39219    
    7.9669      0.39185    
    7.9861      0.39150    
    8.0053      0.39119    
    8.0245      0.39091    
    8.0436      0.39063    
    8.0628      0.39035    
    8.0820      0.39007    
    8.1012      0.38979    
    8.1204      0.38953    
    8.1395      0.38933    
    8.1587      0.38912    
    8.1779      0.38892    
    8.1971      0.38871    
    8.2163      0.38851    
    8.2354      0.38830    
    8.2546      0.38810    
    8.2738      0.38790    
    8.2930      0.38770    
    8.3122      0.38749    
    8.3313      0.38729    
    8.3505      0.38709    
    8.3697      0.38689    
    8.3889      0.38669    
    8.4081      0.38649    
    8.4272      0.38629    
    8.4464      0.38609    
    8.4656      0.38589    
    8.4848      0.38570    
    8.5040      0.38550    
    8.5231      0.38530    
    8.5423      0.38511    
    8.5615      0.38491    
    8.5807      0.38472    
    8.5999      0.38452    
    8.6190      0.38433    
    8.6382      0.38413    
    8.6574      0.38394    
    8.6766      0.38374    
    8.6958      0.38355    
    8.7149      0.38336    
    8.7341      0.38317    
    8.7533      0.38297    
    8.7725      0.38278    
    8.7917      0.38259    
    8.8108      0.38240    
    8.8300      0.38221    
    8.8492      0.38202    
    8.8684      0.38183    
    8.8876      0.38164    
    8.9067      0.38146    
    8.9259      0.38127    
    8.9451      0.38108    
    8.9643      0.38089    
    8.9835      0.38071    
    9.0026      0.38052    
    9.0218      0.38033    
    9.0410      0.38015    
    9.0602      0.37996    
    9.0794      0.37978    
    9.0985      0.37959    
    9.1177      0.37941    
    9.1369      0.37922    
    9.1561      0.37904    
    9.1753      0.37886    
    9.1944      0.37868    
    9.2136      0.37849    
    9.2328      0.37831    
    9.2520      0.37813    
    9.2712      0.37794    
    9.2903      0.37773    
    9.3095      0.37753    
    9.3287      0.37732    
    9.3479      0.37711    
    9.3671      0.37691    
    9.3862      0.37670    
    9.4054      0.37649    
    9.4246      0.37628    
    9.4438      0.37606    
    9.4630      0.37585    
    9.4821      0.37564    
    9.5013      0.37542    
    9.5205      0.37521    
    9.5397      0.37500    
    9.5589      0.37479    
    9.5780      0.37458    
    9.5972      0.37437    
    9.6164      0.37416    
    9.6356      0.37395    
    9.6548      0.37374    
    9.6739      0.37353    
    9.6931      0.37332    
    9.7123      0.37311    
    9.7315      0.37290    
    9.7507      0.37270    
    9.7698      0.37249    
    9.7890      0.37228    
    9.8082      0.37208    
    9.8274      0.37187    
    9.8466      0.37166    
    9.8657      0.37146    
    9.8849      0.37126    
    9.9041      0.37105    
    9.9233      0.37085    
    9.9425      0.37064    
    9.9616      0.37044    
    9.9808      0.37024      
    10.080      0.36920    
    10.160      0.36837    
    10.240      0.36754    
    10.320      0.36672    
    10.400      0.36591    
    10.480      0.36525    
    10.560      0.36467    
    10.640      0.36479    
    10.720      0.36517    
    10.800      0.36554    
    10.880      0.36591    
    10.960      0.36628    
    11.040      0.36664    
    11.120      0.36748    
    11.200      0.36847    
    11.280      0.36956    
    11.360      0.37070    
    11.440      0.37182    
    11.520      0.37294    
    11.600      0.37404    
    11.680      0.37514    
    11.760      0.37624    
    11.840      0.37732    
    11.920      0.37840    
    12.000      0.37947    
    12.080      0.38053    
    12.160      0.38004    
    12.240      0.37949    
    12.320      0.37873    
    12.400      0.37790    
    12.480      0.37707    
    12.560      0.37625    
    12.640      0.37544    
    12.720      0.37462    
    12.800      0.37382    
    12.880      0.37302    
    12.960      0.37222    
    13.040      0.37054    
    13.120      0.36753    
    13.200      0.36454    
    13.280      0.36136    
    13.360      0.35819    
    13.440      0.35505    
    13.520      0.35192    
    13.600      0.34881    
    13.680      0.34572    
    13.760      0.34265    
    13.840      0.33960    
    13.920      0.33657    
    14.000      0.33356    
    14.080      0.33057    
    14.160      0.32760    
    14.240      0.32466    
    14.320      0.32175    
    14.400      0.31886    
    14.480      0.31600    
    14.560      0.31315    
    14.640      0.31032    
    14.720      0.30751    
    14.800      0.30472    
    14.880      0.30195    
    14.960      0.29920    
    15.040      0.29646    
    15.120      0.29372    
    15.200      0.29098    
    15.280      0.28825    
    15.360      0.28389    
    15.440      0.27904    
    15.520      0.27423    
    15.600      0.26946    
    15.680      0.26474    
    15.760      0.26007    
    15.840      0.25543    
    15.920      0.25085    
    16.000      0.24620    
    16.080      0.24073    
    16.160      0.23532    
    16.240      0.22977    
    16.320      0.22303    
    16.400      0.21638    
    16.480      0.20983    
    16.560      0.20339    
    16.640      0.19706    
    16.720      0.19083    
    16.800      0.18471    
    16.880      0.17870    
    16.960      0.17280    
    17.040      0.16701    
    17.120      0.16134    
    17.200      0.15578    
    17.280      0.15034    
    17.360      0.14501    
    17.440      0.13980    
    17.520      0.13471    
    17.600      0.12973    
    17.680      0.12488    
    17.760      0.12003    
    17.840      0.11512    
    17.920      0.11035    
    18.000      0.10556    
    18.080      0.99249E-01
    18.160      0.93181E-01
    18.240      0.87359E-01
    18.320      0.81780E-01
    18.400      0.76444E-01
    18.480      0.71348E-01
    18.560      0.66489E-01
    18.640      0.61865E-01
    18.720      0.57470E-01
    18.800      0.53301E-01
    18.880      0.49353E-01
    18.960      0.45620E-01
    19.040      0.42097E-01
    19.120      0.38778E-01
    19.200      0.35659E-01
    19.280      0.32731E-01
    19.360      0.29988E-01
    19.440      0.27424E-01
    19.520      0.25032E-01
    19.600      0.22804E-01
    19.680      0.20734E-01
    19.760      0.18815E-01
    19.840      0.17038E-01
    19.920      0.15398E-01
    20.000      0.13886E-01
    20.080      0.12496E-01
    20.160      0.11221E-01
    20.240      0.10054E-01
    20.320      0.89875E-02
    20.400      0.80164E-02
    20.480      0.71336E-02
    20.560      0.63331E-02
    20.640      0.56092E-02
    20.720      0.49559E-02
    20.800      0.43679E-02
    20.880      0.38401E-02
    20.960      0.33675E-02
    21.040      0.29454E-02
    21.120      0.25695E-02
    21.200      0.22355E-02
    21.280      0.19398E-02
    21.360      0.16785E-02
    21.440      0.14484E-02
    21.520      0.12463E-02
    21.600      0.10693E-02
    21.680      0.91478E-03
    21.760      0.78027E-03
    21.840      0.66353E-03
    21.920      0.56254E-03
    22.000      0.47544E-03
    22.080      0.40056E-03
    22.160      0.33640E-03
    22.240      0.28159E-03
    22.320      0.23494E-03
    22.400      0.19537E-03
    22.480      0.16190E-03
    22.560      0.13372E-03
    22.640      0.11005E-03
    22.720      0.90252E-04
    22.800      0.73933E-04
    22.880      0.60904E-04
    22.960      0.50009E-04
    23.040      0.40927E-04
    23.120      0.33383E-04
    23.200      0.27311E-04
    23.280      0.22275E-04
    23.360      0.18109E-04
    23.440      0.14674E-04
    23.520      0.11851E-04
    23.600      0.95394E-05
    23.680      0.76525E-05
    23.760      0.61179E-05
    23.840      0.48739E-05
    23.920      0.38693E-05
    24.000      0.30608E-05
    24.080      0.24125E-05
    24.160      0.18946E-05
    24.240      0.14824E-05
    24.320      0.11555E-05
    24.400      0.89738E-06
    24.480      0.69423E-06
    24.560      0.53498E-06
    24.640      0.41066E-06
    24.720      0.31398E-06
    24.800      0.23911E-06
    24.880      0.18134E-06
    24.960      0.13697E-06
    25.040      0.10303E-06
    25.120      0.77173E-07
    25.200      0.57559E-07
    25.280      0.42747E-07
    25.360      0.31610E-07
    25.440      0.23272E-07
    25.520      0.17057E-07
    25.600      0.12446E-07
    25.680      0.90403E-08
    25.760      0.65362E-08
    25.840      0.47038E-08
    25.920      0.33692E-08
    26.000      0.24018E-08
    26.080      0.17041E-08
    26.160      0.12032E-08
    26.240      0.84538E-09
    26.320      0.59103E-09
    26.400      0.41114E-09
    26.480      0.28455E-09
    26.560      0.19594E-09
    26.640      0.13421E-09
    26.720      0.91458E-10
    26.800      0.61993E-10
    26.880      0.41794E-10
    26.960      0.28025E-10
    27.040      0.18690E-10
    27.120      0.12395E-10
    27.200      0.81749E-11
    27.280      0.53613E-11
    27.360      0.34961E-11
    27.440      0.22666E-11
    27.520      0.14610E-11
    27.600      0.93865E-12
    27.680      0.65533E-12
    27.760      0.45588E-12
    27.840      0.31599E-12
    27.920      0.21822E-12
    28.000      0.15015E-12
    28.080      0.11449E-12
    28.160      0.88154E-13
    28.240      0.67772E-13
    28.320      0.52021E-13
    28.400      0.39869E-13
    28.480      0.30509E-13
    28.560      0.23310E-13
    28.640      0.17781E-13
    28.720      0.13543E-13
    28.800      0.10299E-13
    28.880      0.78191E-14
    28.960      0.59271E-14
    29.040      0.44857E-14
    29.120      0.33895E-14
    29.200      0.25570E-14
    29.280      0.19260E-14
    29.360      0.14484E-14
    29.440      0.10874E-14
    29.520      0.81510E-15
    29.600      0.61000E-15
    29.680      0.45577E-15
    29.760      0.36055E-15
    29.840      0.29505E-15
    29.920      0.24130E-15
    30.000      0.19723E-15
    30.080      0.16111E-15
    30.160      0.13196E-15
    30.240      0.11090E-15
    30.320      0.93169E-16
    30.400      0.78244E-16
    30.480      0.65686E-16
    30.560      0.55123E-16
    30.640      0.46241E-16
    30.720      0.38777E-16
    30.800      0.32505E-16
    30.880      0.27237E-16
    30.960      0.22815E-16
    31.040      0.19104E-16
    31.120      0.15991E-16
    31.200      0.13381E-16
    31.280      0.11192E-16
    31.360      0.93582E-17
    31.440      0.78219E-17
    31.520      0.65477E-17
    31.600      0.56360E-17
    31.680      0.48503E-17
    31.760      0.41733E-17
    31.840      0.35901E-17
    31.920      0.30879E-17
    32.000      0.26875E-17
    32.080      0.24479E-17
    32.160      0.22297E-17
    32.240      0.20310E-17
    32.320      0.18500E-17
    32.400      0.16852E-17
    32.480      0.15351E-17
    32.560      0.13984E-17
    32.640      0.12739E-17
    32.720      0.11605E-17
    32.800      0.10572E-17
    32.880      0.96311E-18
    32.960      0.87742E-18
    33.040      0.79935E-18
    33.120      0.72822E-18
    33.200      0.66344E-18
    33.280      0.60445E-18
    33.360      0.55069E-18
    33.440      0.50219E-18
    33.520      0.46097E-18
    33.600      0.42313E-18
    33.680      0.38842E-18
    33.760      0.35656E-18
    33.840      0.32732E-18
    33.920      0.30050E-18
    34.000      0.30694E-18
    34.080      0.31663E-18
    34.160      0.32659E-18
    34.240      0.33683E-18
    34.320      0.34737E-18
    34.400      0.35819E-18
    34.480      0.36931E-18
    34.560      0.38073E-18
    34.640      0.39247E-18
    34.720      0.40453E-18
    34.800      0.41693E-18
    34.880      0.42966E-18
    34.960      0.44274E-18
    35.040      0.45619E-18
    35.120      0.47001E-18
    35.200      0.48420E-18
    35.280      0.49877E-18
    35.360      0.51374E-18
    35.440      0.52912E-18
    35.520      0.67112E-18
    35.600      0.91714E-18
    35.680      0.12496E-17
    35.760      0.16974E-17
    35.840      0.22989E-17
    35.920      0.31045E-17
    36.000      0.43002E-17
    36.080      0.70043E-17
    36.160      0.11329E-16
    36.240      0.18199E-16
    36.320      0.29036E-16
    36.400      0.46018E-16
    36.480      0.72460E-16
    36.560      0.11335E-15
    36.640      0.17621E-15
    36.720      0.27221E-15
    36.800      0.41794E-15
    36.880      0.63785E-15
    36.960      0.96764E-15
    37.040      0.14594E-14
    37.120      0.21885E-14
    37.200      0.32632E-14
    37.280      0.48389E-14
    37.360      0.71361E-14
    37.440      0.10467E-13
    37.520      0.15272E-13
    37.600      0.22166E-13
    37.680      0.32009E-13
    37.760      0.45986E-13
    37.840      0.65742E-13
    37.920      0.93524E-13
    38.000      0.13241E-12
    38.080      0.18657E-12
    38.160      0.26167E-12
    38.240      0.36527E-12
    38.320      0.50762E-12
    38.400      0.70230E-12
    38.480      0.96738E-12
    38.560      0.13268E-11
    38.640      0.18120E-11
    38.720      0.24643E-11
    38.800      0.33378E-11
    38.880      0.45024E-11
    38.960      0.60492E-11
    39.040      0.80957E-11
    39.120      0.10793E-10
    39.200      0.14333E-10
    39.280      0.18964E-10
    39.360      0.23786E-10
    39.440      0.28449E-10
    39.520      0.33969E-10
    39.600      0.40493E-10
    39.680      0.48193E-10
    39.760      0.57262E-10
    39.840      0.67931E-10
    39.920      0.79933E-10
    40.000      0.91780E-10
    40.080      0.10527E-09
    40.160      0.12061E-09
    40.240      0.13804E-09
    40.320      0.15781E-09
    40.400      0.18023E-09
    40.480      0.20562E-09
    40.560      0.23435E-09
    40.640      0.26681E-09
    40.720      0.30345E-09
    40.800      0.34479E-09
    40.880      0.39138E-09
    40.960      0.44381E-09
    41.040      0.50279E-09
    41.120      0.56906E-09
    41.200      0.64347E-09
    41.280      0.72692E-09
    41.360      0.82043E-09
    41.440      0.92511E-09
    41.520      0.10422E-08
    41.600      0.11730E-08
    41.680      0.13191E-08
    41.760      0.14820E-08
    41.840      0.16635E-08
    41.920      0.18656E-08
    42.000      0.20905E-08
    42.080      0.23405E-08
    42.160      0.26182E-08
    42.240      0.29263E-08
    42.320      0.32679E-08
    42.400      0.36464E-08
    42.480      0.40654E-08
    42.560      0.45287E-08
    42.640      0.50409E-08
    42.720      0.56065E-08
    42.800      0.62306E-08
    42.880      0.69189E-08
    42.960      0.76973E-08
    43.040      0.89932E-08
    43.120      0.10491E-07
    43.200      0.12218E-07
    43.280      0.14208E-07
    43.360      0.16497E-07
    43.440      0.19126E-07
    43.520      0.22141E-07
    43.600      0.25656E-07
    43.680      0.30616E-07
    43.760      0.36456E-07
    43.840      0.43320E-07
    43.920      0.51373E-07
    44.000      0.60799E-07
    44.080      0.71812E-07
    44.160      0.84652E-07
    44.240      0.99597E-07
    44.320      0.11695E-06
    44.400      0.13708E-06
    44.480      0.16037E-06
    44.560      0.18727E-06
    44.640      0.21830E-06
    44.720      0.25400E-06
    44.800      0.29502E-06
    44.880      0.34207E-06
    44.960      0.55780E-06
    45.040      0.99165E-06
    45.120      0.17211E-05
    45.200      0.29196E-05
    45.280      0.48453E-05
    45.360      0.78743E-05
    45.440      0.12543E-04
    45.520      0.19598E-04
    45.600      0.35061E-04
    45.680      0.73854E-04
    45.760      0.14722E-03
    45.840      0.27880E-03
    45.920      0.50366E-03
    46.000      0.87103E-03
    46.080      0.14468E-02
    46.160      0.23151E-02
    46.240      0.35787E-02
    46.320      0.40667E-02
    46.400      0.45526E-02
    46.480      0.50838E-02
    46.560      0.56632E-02
    46.640      0.62936E-02
    46.720      0.69778E-02
    46.800      0.77190E-02
    46.880      0.85198E-02
    46.960      0.92101E-02
    47.040      0.96365E-02
    47.120      0.10078E-01
    47.200      0.10533E-01
    47.280      0.11004E-01
    47.360      0.11491E-01
    47.440      0.11993E-01
    47.520      0.12511E-01
    47.600      0.13045E-01
    47.680      0.13163E-01
    47.760      0.13057E-01
    47.840      0.12951E-01
    47.920      0.12847E-01
    48.000      0.12743E-01
    48.080      0.12640E-01
    48.160      0.12538E-01
    48.240      0.12437E-01
    48.320      0.12336E-01
    48.400      0.12237E-01
    48.480      0.12138E-01
    48.560      0.12039E-01
    48.640      0.11942E-01
    48.720      0.11845E-01
    48.800      0.11750E-01
    48.880      0.11654E-01
    48.960      0.11560E-01
    49.040      0.11466E-01
    49.120      0.11346E-01
    49.200      0.11221E-01
    49.280      0.11097E-01
    49.360      0.10974E-01
    49.440      0.10853E-01
    49.520      0.10733E-01
    49.600      0.10614E-01
    49.680      0.10496E-01
    49.760      0.10380E-01
    49.840      0.10194E-01
    49.920      0.99844E-02
    50.000      0.97788E-02
    50.100      0.95269E-02
    50.200      0.92806E-02
    50.300      0.90398E-02
    50.400      0.88044E-02
    50.500      0.85744E-02
    50.600      0.83494E-02
    50.700      0.81296E-02
    50.800      0.79149E-02
    50.900      0.77050E-02
    51.000      0.75000E-02
    51.100      0.72998E-02
    51.200      0.71042E-02
    51.300      0.69132E-02
    51.400      0.67268E-02
    51.500      0.65447E-02
    51.600      0.63669E-02
    51.700      0.61934E-02
    51.800      0.60240E-02
    51.900      0.58587E-02
    52.000      0.56974E-02
    52.100      0.55399E-02
    52.200      0.53862E-02
    52.300      0.52363E-02
    52.400      0.50900E-02
    52.500      0.49474E-02
    52.600      0.48083E-02
    52.700      0.46726E-02
    52.800      0.45403E-02
    52.900      0.44113E-02
    53.000      0.42856E-02
    53.100      0.41631E-02
    53.200      0.40436E-02
    53.300      0.39272E-02
    53.400      0.38138E-02
    53.500      0.37032E-02
    53.600      0.35956E-02
    53.700      0.34906E-02
    53.800      0.33885E-02
    53.900      0.32889E-02
    54.000      0.31920E-02
    54.100      0.30976E-02
    54.200      0.30057E-02
    54.300      0.29163E-02
    54.400      0.28292E-02
    54.500      0.27444E-02
    54.600      0.26620E-02
    54.700      0.25817E-02
    54.800      0.25036E-02
    54.900      0.24276E-02
    55.000      0.23537E-02
    55.100      0.22818E-02
    55.200      0.22119E-02
    55.300      0.21438E-02
    55.400      0.20777E-02
    55.500      0.20134E-02
    55.600      0.19508E-02
    55.700      0.18901E-02
    55.800      0.18310E-02
    55.900      0.17736E-02
    56.000      0.17178E-02
    56.100      0.16518E-02
    56.200      0.15860E-02
    56.300      0.15225E-02
    56.400      0.14613E-02
    56.500      0.14023E-02
    56.600      0.13454E-02
    56.700      0.12905E-02
    56.800      0.12377E-02
    56.900      0.11855E-02
    57.000      0.11341E-02
    57.100      0.10847E-02
    57.200      0.10372E-02
    57.300      0.99157E-03
    57.400      0.94775E-03
    57.500      0.90567E-03
    57.600      0.86528E-03
    57.700      0.82650E-03
    57.800      0.78930E-03
    57.900      0.75360E-03
    58.000      0.71936E-03
    58.100      0.68653E-03
    58.200      0.65505E-03
    58.300      0.62488E-03
    58.400      0.59596E-03
    58.500      0.56826E-03
    58.600      0.54172E-03
    58.700      0.51630E-03
    58.800      0.49197E-03
    58.900      0.46867E-03
    59.000      0.44638E-03
    59.100      0.42505E-03
    59.200      0.40465E-03
    59.300      0.38514E-03
    59.400      0.36649E-03
    59.500      0.34865E-03
    59.600      0.33161E-03
    59.700      0.31533E-03
    59.800      0.29978E-03
    59.900      0.28493E-03
    60.000      0.27075E-03
    60.100      0.25722E-03
    60.200      0.24431E-03
    60.300      0.23199E-03
    60.400      0.22024E-03
    60.500      0.20904E-03
    60.600      0.19836E-03
    60.700      0.18818E-03
    60.800      0.17849E-03
    60.900      0.16925E-03
    61.000      0.16045E-03
    61.100      0.15207E-03
    61.200      0.14409E-03
    61.300      0.13650E-03
    61.400      0.12928E-03
    61.500      0.12241E-03
    61.600      0.11588E-03
    61.700      0.10967E-03
    61.800      0.10377E-03
    61.900      0.98159E-04
    62.000      0.92830E-04
    62.100      0.87769E-04
    62.200      0.82963E-04
    62.300      0.78401E-04
    62.400      0.74072E-04
    62.500      0.69964E-04
    62.600      0.66068E-04
    62.700      0.62372E-04
    62.800      0.58869E-04
    62.900      0.55548E-04
    63.000      0.52402E-04
    63.100      0.49421E-04
    63.200      0.46598E-04
    63.300      0.43925E-04
    63.400      0.41394E-04
    63.500      0.39000E-04
    63.600      0.36734E-04
    63.700      0.34591E-04
    63.800      0.32565E-04
    63.900      0.30649E-04
    64.000      0.28839E-04
    64.100      0.27128E-04
    64.200      0.25512E-04
    64.300      0.23986E-04
    64.400      0.22545E-04
    64.500      0.21186E-04
    64.600      0.19903E-04
    64.700      0.18692E-04
    64.800      0.17551E-04
    64.900      0.16475E-04
    65.000      0.15461E-04
    65.100      0.14505E-04
    65.200      0.13605E-04
    65.300      0.12757E-04
    65.400      0.11959E-04
    65.500      0.11208E-04
    65.600      0.10501E-04
    65.700      0.98362E-05
    65.800      0.92107E-05
    65.900      0.86227E-05
    66.000      0.80700E-05
    66.100      0.75506E-05
    66.200      0.70627E-05
    66.300      0.66045E-05
    66.400      0.61744E-05
    66.500      0.57706E-05
    66.600      0.53917E-05
    66.700      0.50363E-05
    66.800      0.47030E-05
    66.900      0.43905E-05
    67.000      0.40978E-05
    67.100      0.38234E-05
    67.200      0.35664E-05
    67.300      0.33257E-05
    67.400      0.31004E-05
    67.500      0.28895E-05
    67.600      0.26922E-05
    67.700      0.25077E-05
    67.800      0.23351E-05
    67.900      0.21738E-05
    68.000      0.20230E-05
    68.100      0.18822E-05
    68.200      0.17506E-05
    68.300      0.16278E-05
    68.400      0.15131E-05
    68.500      0.14061E-05
    68.600      0.13063E-05
    68.700      0.12132E-05
    68.800      0.11264E-05
    68.900      0.10455E-05
    69.000      0.97017E-06
    69.100      0.89997E-06
    69.200      0.83460E-06
    69.300      0.77375E-06
    69.400      0.71712E-06
    69.500      0.66443E-06
    69.600      0.61543E-06
    69.700      0.56988E-06
    69.800      0.52753E-06
    69.900      0.48818E-06
    70.000      0.45163E-06
    70.100      0.41769E-06
    70.200      0.38618E-06
    70.300      0.35694E-06
    70.400      0.32981E-06
    70.500      0.30465E-06
    70.600      0.28132E-06
    70.700      0.25969E-06
    70.800      0.23966E-06
    70.900      0.22110E-06
    71.000      0.20392E-06
    71.100      0.18802E-06
    71.200      0.17330E-06
    71.300      0.15969E-06
    71.400      0.14709E-06
    71.500      0.13545E-06
    71.600      0.12469E-06
    71.700      0.11475E-06
    71.800      0.10557E-06
    71.900      0.97091E-07
    72.000      0.89264E-07
    72.100      0.82039E-07
    72.200      0.75376E-07
    72.300      0.69231E-07
    72.400      0.63567E-07
    72.500      0.58347E-07
    72.600      0.53538E-07
    72.700      0.49110E-07
    72.800      0.45033E-07
    72.900      0.41282E-07
    73.000      0.37830E-07
    73.100      0.34657E-07
    73.200      0.31739E-07
    73.300      0.29057E-07
    73.400      0.26593E-07
    73.500      0.24330E-07
    73.600      0.22253E-07
    73.700      0.20345E-07
    73.800      0.18596E-07
    73.900      0.16990E-07
    74.000      0.15519E-07
    74.100      0.14170E-07
    74.200      0.12934E-07
    74.300      0.11802E-07
    74.400      0.10765E-07
    74.500      0.98161E-08
    74.600      0.89478E-08
    74.700      0.81535E-08
    74.800      0.74272E-08
    74.900      0.67633E-08
    75.000      0.61566E-08
    75.100      0.56024E-08
    75.200      0.50964E-08
    75.300      0.46344E-08
    75.400      0.42127E-08
    75.500      0.38281E-08
    75.600      0.34774E-08
    75.700      0.31577E-08
    75.800      0.28664E-08
    75.900      0.26011E-08
    76.000      0.23595E-08
    76.100      0.21396E-08
    76.200      0.19395E-08
    76.300      0.17575E-08
    76.400      0.15920E-08
    76.500      0.14417E-08
    76.600      0.13051E-08
    76.700      0.11810E-08
    76.800      0.10683E-08
    76.900      0.96600E-09
    77.000      0.87319E-09
    77.100      0.78904E-09
    77.200      0.71272E-09
    77.300      0.64355E-09
    77.400      0.58090E-09
    77.500      0.52414E-09
    77.600      0.47275E-09
    77.700      0.42624E-09
    77.800      0.38416E-09
    77.900      0.34611E-09
    78.000      0.31171E-09
    78.100      0.28064E-09
    78.200      0.25256E-09
    78.300      0.22721E-09
    78.400      0.20433E-09
    78.500      0.18368E-09
    78.600      0.16506E-09
    78.700      0.14827E-09
    78.800      0.13314E-09
    78.900      0.11951E-09
    79.000      0.10724E-09
    79.100      0.96189E-10
    79.200      0.86245E-10
    79.300      0.77299E-10
    79.400      0.69256E-10
    79.500      0.62025E-10
    79.600      0.55529E-10
    79.700      0.49694E-10
    79.800      0.44454E-10
    79.900      0.39754E-10
    80.000      0.35537E-10
    80.100      0.31755E-10
    80.200      0.28365E-10
    80.300      0.25327E-10
    80.400      0.22605E-10
    80.500      0.20168E-10
    80.600      0.17987E-10
    80.700      0.16036E-10
    80.800      0.14290E-10
    80.900      0.12730E-10
    81.000      0.11335E-10
    81.100      0.10089E-10
    81.200      0.89771E-11
    81.300      0.79840E-11
    81.400      0.70980E-11
    81.500      0.63079E-11
    81.600      0.56036E-11
    81.700      0.49758E-11
    81.800      0.44166E-11
    81.900      0.39187E-11
    82.000      0.34756E-11
    82.100      0.30813E-11
    82.200      0.27359E-11
    82.300      0.25166E-11
    82.400      0.23145E-11
    82.500      0.21283E-11
    82.600      0.19567E-11
    82.700      0.17987E-11
    82.800      0.16532E-11
    82.900      0.15192E-11
    83.000      0.13958E-11
    83.100      0.12823E-11
    83.200      0.11778E-11
    83.300      0.10816E-11
    83.400      0.99312E-12
    83.500      0.92488E-12
    83.600      0.86357E-12
    83.700      0.80625E-12
    83.800      0.75266E-12
    83.900      0.70258E-12
    84.000      0.65578E-12
    84.100      0.61204E-12
    84.200      0.57117E-12
    84.300      0.53297E-12
    84.400      0.49730E-12
    84.500      0.46396E-12
    84.600      0.43282E-12
    84.700      0.40375E-12
    84.800      0.37658E-12
    84.900      0.35122E-12
    85.000      0.32754E-12
    85.100      0.30543E-12
    85.200      0.28478E-12
    85.300      0.26551E-12
    85.400      0.24752E-12
    85.500      0.23073E-12
    85.600      0.21505E-12
    85.700      0.20043E-12
    85.800      0.18678E-12
    85.900      0.17405E-12
    86.000      0.16217E-12
    86.100      0.15109E-12
    86.200      0.14076E-12
    86.300      0.13112E-12
    86.400      0.12213E-12
    86.500      0.11374E-12
    86.600      0.10592E-12
    86.700      0.98637E-13
    86.800      0.91840E-13
    86.900      0.85505E-13
    87.000      0.79600E-13
    87.100      0.74097E-13
    87.200      0.68969E-13
    87.300      0.64188E-13
    87.400      0.59734E-13
    87.500      0.55584E-13
    87.600      0.51718E-13
    87.700      0.48117E-13
    87.800      0.44762E-13
    87.900      0.41638E-13
    88.000      0.38728E-13
    88.100      0.36019E-13
    88.200      0.33496E-13
    88.300      0.31147E-13
    88.400      0.28960E-13
    88.500      0.26925E-13
    88.600      0.25030E-13
    88.700      0.23266E-13
    88.800      0.21625E-13
    88.900      0.20098E-13
    89.000      0.18677E-13
    89.100      0.17355E-13
    89.200      0.16125E-13
    89.300      0.14981E-13
    89.400      0.13917E-13
    89.500      0.12927E-13
    89.600      0.12007E-13
    89.700      0.11151E-13
    89.800      0.10356E-13
    89.900      0.96160E-14
    90.000      0.89285E-14
    90.100      0.82893E-14
    90.200      0.76953E-14
    90.300      0.71432E-14
    90.400      0.66301E-14
    90.500      0.61534E-14
    90.600      0.57104E-14
    90.700      0.52989E-14
    90.800      0.49165E-14
    90.900      0.45614E-14
    91.000      0.42316E-14
    91.100      0.39252E-14
    91.200      0.37157E-14
    91.300      0.35547E-14
    91.400      0.34007E-14
    91.500      0.32533E-14
    91.600      0.31122E-14
    91.700      0.29773E-14
    91.800      0.28481E-14
    91.900      0.27246E-14
    92.000      0.26063E-14
    92.100      0.24932E-14
    92.200      0.23849E-14
    92.300      0.22814E-14
    92.400      0.21823E-14
    92.500      0.20886E-14
    92.600      0.20066E-14
    92.700      0.19278E-14
    92.800      0.18521E-14
    92.900      0.17794E-14
    93.000      0.17095E-14
    93.100      0.16424E-14
    93.200      0.15779E-14
    93.300      0.15159E-14
    93.400      0.14563E-14
    93.500      0.13991E-14
    93.600      0.13441E-14
    93.700      0.12913E-14
    93.800      0.12405E-14
    93.900      0.11918E-14
    94.000      0.11449E-14
    94.100      0.10999E-14
    94.200      0.10566E-14
    94.300      0.10151E-14
    94.400      0.97518E-15
    94.500      0.93682E-15
    94.600      0.89996E-15
    94.700      0.86456E-15
    94.800      0.83055E-15
    94.900      0.79787E-15
    95.000      0.76647E-15
    95.100      0.73630E-15
    95.200      0.70732E-15
    95.300      0.67948E-15
    95.400      0.65273E-15
    95.500      0.62703E-15
    95.600      0.60234E-15
    95.700      0.57862E-15
    95.800      0.55583E-15
    95.900      0.53394E-15
    96.000      0.51290E-15
    96.100      0.49270E-15
    96.200      0.47329E-15
    96.300      0.45464E-15
    96.400      0.43672E-15
    96.500      0.41951E-15
    96.600      0.40297E-15
    96.700      0.38709E-15
    96.800      0.37183E-15
    96.900      0.35717E-15
    97.000      0.34308E-15
    97.100      0.32955E-15
    97.200      0.31655E-15
    97.300      0.30407E-15
    97.400      0.29207E-15
    97.500      0.28055E-15
    97.600      0.26948E-15
    97.700      0.25885E-15
    97.800      0.24863E-15
    97.900      0.23882E-15
    98.000      0.22939E-15
    98.100      0.22034E-15
    98.200      0.21164E-15
    98.300      0.20328E-15
    98.400      0.19526E-15
    98.500      0.18755E-15
    98.600      0.18015E-15
    98.700      0.17303E-15
    98.800      0.16620E-15
    98.900      0.15963E-15
    99.000      0.15333E-15
    99.100      0.14727E-15
    99.200      0.14145E-15
    99.300      0.13586E-15
    99.400      0.13049E-15
    99.500      0.12534E-15
    99.600      0.12038E-15
    99.700      0.11562E-15
    99.800      0.11105E-15
    99.900      0.10666E-15
    100.00      0.10244E-15
   
