 Al Density=2.6989 Thickness=0.5 microns
 Wavelength (nm), Transmission
   0.42000      0.89577    
   0.43916      0.88315    
   0.45832      0.86983    
   0.47748      0.85585    
   0.49664      0.84124    
   0.51580      0.82605    
   0.53496      0.81031    
   0.55412      0.79408    
   0.57328      0.77739    
   0.59244      0.76032    
   0.61160      0.74292    
   0.63076      0.72568    
   0.64992      0.70794    
   0.66908      0.68987    
   0.68824      0.67151    
   0.70740      0.65298    
   0.72656      0.63474    
   0.74572      0.61670    
   0.76488      0.59856    
   0.78404      0.58035    
   0.80320      0.95242    
   0.82236      0.94911    
   0.84152      0.94579    
   0.86068      0.94246    
   0.87984      0.93905    
   0.89900      0.93552    
   0.91816      0.93187    
   0.93732      0.92811    
   0.95648      0.92423    
   0.97564      0.92023    
   0.99480      0.91607    
    1.0140      0.91175    
    1.0331      0.90730    
    1.0523      0.90271    
    1.0714      0.89800    
    1.0906      0.89317    
    1.1098      0.88821    
    1.1289      0.88313    
    1.1481      0.87793    
    1.1672      0.87260    
    1.1864      0.86718    
    1.2056      0.86175    
    1.2247      0.85625    
    1.2439      0.85051    
    1.2630      0.84464    
    1.2822      0.83864    
    1.3014      0.83253    
    1.3205      0.82631    
    1.3397      0.81998    
    1.3588      0.81355    
    1.3780      0.80702    
    1.3972      0.80038    
    1.4163      0.79364    
    1.4355      0.78680    
    1.4546      0.77987    
    1.4738      0.77285    
    1.4930      0.76574    
    1.5121      0.75853    
    1.5313      0.75124    
    1.5504      0.74387    
    1.5696      0.73641    
    1.5888      0.72889    
    1.6079      0.72132    
    1.6271      0.71372    
    1.6462      0.70606    
    1.6654      0.69834    
    1.6846      0.69056    
    1.7037      0.68272    
    1.7229      0.67481    
    1.7420      0.66692    
    1.7612      0.65915    
    1.7804      0.65161    
    1.7995      0.64408    
    1.8187      0.63644    
    1.8378      0.62844    
    1.8570      0.62019    
    1.8762      0.61148    
    1.8953      0.60274    
    1.9145      0.59397    
    1.9336      0.58531    
    1.9528      0.57674    
    1.9720      0.56828    
    1.9911      0.55993    
    2.0103      0.55161    
    2.0294      0.54329    
    2.0486      0.53496    
    2.0678      0.52664    
    2.0869      0.51832    
    2.1061      0.51001    
    2.1252      0.50172    
    2.1444      0.49345    
    2.1636      0.48521    
    2.1827      0.47703    
    2.2019      0.46894    
    2.2210      0.46092    
    2.2402      0.45297    
    2.2594      0.44516    
    2.2785      0.43743    
    2.2977      0.42973    
    2.3168      0.42208    
    2.3360      0.41445    
    2.3552      0.40686    
    2.3743      0.39929    
    2.3935      0.39176    
    2.4126      0.38427    
    2.4318      0.37683    
    2.4510      0.36949    
    2.4701      0.36221    
    2.4893      0.35509    
    2.5084      0.34803    
    2.5276      0.34109    
    2.5468      0.33422    
    2.5659      0.32743    
    2.5851      0.32071    
    2.6042      0.31405    
    2.6234      0.30746    
    2.6426      0.30094    
    2.6617      0.29449    
    2.6809      0.28811    
    2.7000      0.28181    
    2.7192      0.27558    
    2.7384      0.26942    
    2.7575      0.26334    
    2.7767      0.25734    
    2.7958      0.25140    
    2.8150      0.24558    
    2.8342      0.23995    
    2.8533      0.23440    
    2.8725      0.22920    
    2.8916      0.22412    
    2.9108      0.21912    
    2.9300      0.21418    
    2.9491      0.20932    
    2.9683      0.20453    
    2.9874      0.19981    
    3.0066      0.19516    
    3.0258      0.19058    
    3.0449      0.18608    
    3.0641      0.18165    
    3.0832      0.17728    
    3.1024      0.17299    
    3.1216      0.16878    
    3.1407      0.16463    
    3.1599      0.16055    
    3.1790      0.15654    
    3.1982      0.15261    
    3.2174      0.14874    
    3.2365      0.14495    
    3.2557      0.14122    
    3.2748      0.13756    
    3.2940      0.13397    
    3.3132      0.13045    
    3.3323      0.12700    
    3.3515      0.12361    
    3.3706      0.12029    
    3.3898      0.11704    
    3.4090      0.11384    
    3.4281      0.11064    
    3.4473      0.10750    
    3.4664      0.10439    
    3.4856      0.10114    
    3.5048      0.97965E-01
    3.5239      0.94866E-01
    3.5431      0.91841E-01
    3.5622      0.88889E-01
    3.5814      0.86009E-01
    3.6006      0.83200E-01
    3.6197      0.80461E-01
    3.6389      0.77790E-01
    3.6580      0.75188E-01
    3.6772      0.72653E-01
    3.6964      0.70184E-01
    3.7155      0.67781E-01
    3.7347      0.65442E-01
    3.7538      0.63167E-01
    3.7730      0.60954E-01
    3.7922      0.58802E-01
    3.8113      0.56711E-01
    3.8305      0.54678E-01
    3.8496      0.52704E-01
    3.8688      0.50786E-01
    3.8880      0.48925E-01
    3.9071      0.47119E-01
    3.9263      0.45367E-01
    3.9454      0.43667E-01
    3.9646      0.42020E-01
    3.9838      0.40423E-01
    4.0029      0.38876E-01
    4.0221      0.37377E-01
    4.0412      0.35926E-01
    4.0604      0.34521E-01
    4.0796      0.33162E-01
    4.0987      0.31847E-01
    4.1179      0.30575E-01
    4.1370      0.29346E-01
    4.1562      0.28158E-01
    4.1754      0.27010E-01
    4.1945      0.25901E-01
    4.2137      0.24831E-01
    4.2328      0.23798E-01
    4.2520      0.22801E-01
    4.2712      0.21839E-01
    4.2903      0.20912E-01
    4.3095      0.20018E-01
    4.3286      0.19157E-01
    4.3478      0.18328E-01
    4.3670      0.17529E-01
    4.3861      0.16760E-01
    4.4053      0.16020E-01
    4.4244      0.15308E-01
    4.4436      0.14623E-01
    4.4628      0.13965E-01
    4.4819      0.13332E-01
    4.5011      0.12724E-01
    4.5202      0.12141E-01
    4.5394      0.11580E-01
    4.5586      0.11042E-01
    4.5777      0.10526E-01
    4.5969      0.10030E-01
    4.6160      0.95557E-02
    4.6352      0.91551E-02
    4.6544      0.87973E-02
    4.6735      0.84521E-02
    4.6927      0.81190E-02
    4.7118      0.78104E-02
    4.7310      0.75164E-02
    4.7502      0.72324E-02
    4.7693      0.69582E-02
    4.7885      0.66933E-02
    4.8076      0.64376E-02
    4.8268      0.61907E-02
    4.8460      0.59525E-02
    4.8651      0.57226E-02
    4.8843      0.55007E-02
    4.9034      0.52867E-02
    4.9226      0.50803E-02
    4.9418      0.48812E-02
    4.9609      0.46892E-02
    4.9801      0.45041E-02
    4.9992      0.43257E-02
    5.0184      0.41538E-02
    5.0376      0.39881E-02
    5.0567      0.38284E-02
    5.0759      0.36747E-02
    5.0950      0.35265E-02
    5.1142      0.33839E-02
    5.1334      0.32466E-02
    5.1525      0.31143E-02
    5.1717      0.29871E-02
    5.1908      0.28646E-02
    5.2100      0.27467E-02
    5.2292      0.26333E-02
    5.2483      0.25242E-02
    5.2675      0.24193E-02
    5.2866      0.23184E-02
    5.3058      0.22214E-02
    5.3250      0.21281E-02
    5.3441      0.20385E-02
    5.3633      0.19523E-02
    5.3824      0.18695E-02
    5.4016      0.17900E-02
    5.4208      0.17136E-02
    5.4399      0.16402E-02
    5.4591      0.15698E-02
    5.4782      0.15021E-02
    5.4974      0.14372E-02
    5.5166      0.13742E-02
    5.5357      0.13072E-02
    5.5549      0.12433E-02
    5.5740      0.11822E-02
    5.5932      0.11239E-02
    5.6124      0.10673E-02
    5.6315      0.10120E-02
    5.6507      0.95938E-03
    5.6698      0.90928E-03
    5.6890      0.86159E-03
    5.7082      0.81621E-03
    5.7273      0.77304E-03
    5.7465      0.73199E-03
    5.7656      0.69296E-03
    5.7848      0.65586E-03
    5.8040      0.62060E-03
    5.8231      0.58710E-03
    5.8423      0.55528E-03
    5.8614      0.52507E-03
    5.8806      0.49638E-03
    5.8998      0.46914E-03
    5.9189      0.44330E-03
    5.9381      0.41878E-03
    5.9572      0.39552E-03
    5.9764      0.37347E-03
    5.9956      0.35257E-03
    6.0147      0.33276E-03
    6.0339      0.31399E-03
    6.0530      0.29621E-03
    6.0722      0.27937E-03
    6.0914      0.26343E-03
    6.1105      0.24834E-03
    6.1297      0.23405E-03
    6.1488      0.22054E-03
    6.1680      0.20775E-03
    6.1872      0.19580E-03
    6.2063      0.18452E-03
    6.2255      0.17384E-03
    6.2446      0.16375E-03
    6.2638      0.15420E-03
    6.2830      0.14518E-03
    6.3021      0.13666E-03
    6.3213      0.12861E-03
    6.3404      0.12100E-03
    6.3596      0.11382E-03
    6.3788      0.10704E-03
    6.3979      0.10064E-03
    6.4171      0.94604E-04
    6.4362      0.88908E-04
    6.4554      0.83537E-04
    6.4746      0.78471E-04
    6.4937      0.73694E-04
    6.5129      0.69193E-04
    6.5320      0.64951E-04
    6.5512      0.60955E-04
    6.5704      0.57192E-04
    6.5895      0.53649E-04
    6.6087      0.50315E-04
    6.6278      0.47177E-04
    6.6470      0.44224E-04
    6.6662      0.41446E-04
    6.6853      0.38834E-04
    6.7045      0.36378E-04
    6.7236      0.34069E-04
    6.7428      0.31899E-04
    6.7620      0.29861E-04
    6.7811      0.27946E-04
    6.8003      0.26148E-04
    6.8194      0.24460E-04
    6.8386      0.22876E-04
    6.8578      0.21389E-04
    6.8769      0.19995E-04
    6.8961      0.18687E-04
    6.9152      0.17693E-04
    6.9344      0.16906E-04
    6.9536      0.16153E-04
    6.9727      0.15433E-04
    6.9919      0.14743E-04
    7.0110      0.14084E-04
    7.0302      0.13557E-04
    7.0494      0.13081E-04
    7.0685      0.12621E-04
    7.0877      0.12177E-04
    7.1068      0.11749E-04
    7.1260      0.11336E-04
    7.1452      0.10937E-04
    7.1643      0.10552E-04
    7.1835      0.10180E-04
    7.2026      0.98212E-05
    7.2218      0.94750E-05
    7.2410      0.91407E-05
    7.2601      0.88182E-05
    7.2793      0.85068E-05
    7.2984      0.82064E-05
    7.3176      0.79164E-05
    7.3368      0.76365E-05
    7.3559      0.73664E-05
    7.3751      0.71058E-05
    7.3942      0.68542E-05
    7.4134      0.66115E-05
    7.4326      0.63772E-05
    7.4517      0.61512E-05
    7.4709      0.59330E-05
    7.4900      0.57225E-05
    7.5092      0.55195E-05
    7.5284      0.53235E-05
    7.5475      0.51344E-05
    7.5667      0.49520E-05
    7.5858      0.47759E-05
    7.6050      0.46061E-05
    7.6242      0.44422E-05
    7.6433      0.42841E-05
    7.6625      0.41315E-05
    7.6816      0.39843E-05
    7.7008      0.38423E-05
    7.7200      0.37053E-05
    7.7391      0.35731E-05
    7.7583      0.34456E-05
    7.7774      0.33226E-05
    7.7966      0.32039E-05
    7.8158      0.30895E-05
    7.8349      0.29790E-05
    7.8541      0.28725E-05
    7.8732      0.27697E-05
    7.8924      0.26706E-05
    7.9116      0.25750E-05
    7.9307      0.24828E-05
    7.9499      0.23938E-05
    7.9690      0.23080E-05
    7.9882      0.22252E-05
    8.0074      0.21454E-05
    8.0265      0.20684E-05
    8.0457      0.19942E-05
    8.0648      0.19226E-05
    8.0840      0.18535E-05
    8.1032      0.17869E-05
    8.1223      0.17230E-05
    8.1415      0.16614E-05
    8.1606      0.16020E-05
    8.1798      0.15446E-05
    8.1990      0.14894E-05
    8.2181      0.14360E-05
    8.2373      0.13850E-05
    8.2564      0.13460E-05
    8.2756      0.13081E-05
    8.2948      0.12713E-05
    8.3139      0.12355E-05
    8.3331      0.12007E-05
    8.3522      0.11669E-05
    8.3714      0.11341E-05
    8.3906      0.11022E-05
    8.4097      0.10712E-05
    8.4289      0.10410E-05
    8.4480      0.10118E-05
    8.4672      0.98333E-06
    8.4864      0.95570E-06
    8.5055      0.92885E-06
    8.5247      0.90276E-06
    8.5438      0.87740E-06
    8.5630      0.85276E-06
    8.5822      0.82882E-06
    8.6013      0.80555E-06
    8.6205      0.78294E-06
    8.6396      0.76097E-06
    8.6588      0.73963E-06
    8.6780      0.71888E-06
    8.6971      0.69872E-06
    8.7163      0.67913E-06
    8.7354      0.66009E-06
    8.7546      0.64159E-06
    8.7738      0.62361E-06
    8.7929      0.60614E-06
    8.8121      0.58916E-06
    8.8312      0.57267E-06
    8.8504      0.55663E-06
    8.8696      0.54105E-06
    8.8887      0.52590E-06
    8.9079      0.51119E-06
    8.9270      0.49689E-06
    8.9462      0.48299E-06
    8.9654      0.46948E-06
    8.9845      0.45635E-06
    9.0037      0.44359E-06
    9.0228      0.43120E-06
    9.0420      0.41914E-06
    9.0612      0.40743E-06
    9.0803      0.39605E-06
    9.0995      0.38499E-06
    9.1186      0.37424E-06
    9.1378      0.36378E-06
    9.1570      0.35363E-06
    9.1761      0.34376E-06
    9.1953      0.33417E-06
    9.2144      0.32484E-06
    9.2336      0.31578E-06
    9.2528      0.30697E-06
    9.2719      0.29841E-06
    9.2911      0.29009E-06
    9.3102      0.28201E-06
    9.3294      0.27415E-06
    9.3486      0.26651E-06
    9.3677      0.25908E-06
    9.3869      0.25187E-06
    9.4060      0.24485E-06
    9.4252      0.23804E-06
    9.4444      0.23141E-06
    9.4635      0.22497E-06
    9.4827      0.21871E-06
    9.5018      0.21262E-06
    9.5210      0.20671E-06
    9.5402      0.20096E-06
    9.5593      0.19537E-06
    9.5785      0.18993E-06
    9.5976      0.18465E-06
    9.6168      0.17952E-06
    9.6360      0.17453E-06
    9.6551      0.16968E-06
    9.6743      0.16497E-06
    9.6934      0.16038E-06
    9.7126      0.15593E-06
    9.7318      0.15160E-06
    9.7509      0.14739E-06
    9.7701      0.14330E-06
    9.7892      0.13932E-06
    9.8084      0.13546E-06
    9.8276      0.13177E-06
    9.8467      0.12926E-06
    9.8659      0.12679E-06
    9.8850      0.12438E-06
    9.9042      0.12201E-06
    9.9234      0.11969E-06
    9.9425      0.11741E-06
    9.9617      0.11518E-06
    9.9808      0.11300E-06
    10.000      0.11356E-06
10.020      0.11506E-06
    10.040      0.11657E-06
    10.060      0.11810E-06
    10.080      0.11965E-06
    10.100      0.12121E-06
    10.120      0.12279E-06
    10.140      0.12438E-06
    10.160      0.12599E-06
    10.180      0.12761E-06
    10.200      0.12925E-06
    10.220      0.13091E-06
    10.240      0.13258E-06
    10.260      0.13427E-06
    10.280      0.13598E-06
    10.300      0.13770E-06
    10.320      0.13944E-06
    10.340      0.14120E-06
    10.360      0.14298E-06
    10.380      0.14477E-06
    10.400      0.14658E-06
    10.420      0.14841E-06
    10.440      0.15026E-06
    10.460      0.15212E-06
    10.480      0.15400E-06
    10.500      0.15591E-06
    10.520      0.15783E-06
    10.540      0.15977E-06
    10.560      0.16172E-06
    10.580      0.16370E-06
    10.600      0.16570E-06
    10.620      0.16771E-06
    10.640      0.16974E-06
    10.660      0.17179E-06
    10.680      0.17386E-06
    10.700      0.17595E-06
    10.720      0.17805E-06
    10.740      0.18018E-06
    10.760      0.18232E-06
    10.780      0.18449E-06
    10.800      0.18668E-06
    10.820      0.18888E-06
    10.840      0.19111E-06
    10.860      0.19336E-06
    10.880      0.19563E-06
    10.900      0.19792E-06
    10.920      0.20023E-06
    10.940      0.20256E-06
    10.960      0.20491E-06
    10.980      0.20728E-06
    11.000      0.20968E-06
    11.020      0.21209E-06
    11.040      0.21453E-06
    11.060      0.21699E-06
    11.080      0.21947E-06
    11.100      0.22197E-06
    11.120      0.22450E-06
    11.140      0.22704E-06
    11.160      0.22961E-06
    11.180      0.23220E-06
    11.200      0.23482E-06
    11.220      0.23746E-06
    11.240      0.24012E-06
    11.260      0.24281E-06
    11.280      0.24552E-06
    11.300      0.24825E-06
    11.320      0.25101E-06
    11.340      0.25379E-06
    11.360      0.25659E-06
    11.380      0.25942E-06
    11.400      0.26227E-06
    11.420      0.26514E-06
    11.440      0.26804E-06
    11.460      0.27096E-06
    11.480      0.27391E-06
    11.500      0.27688E-06
    11.520      0.27988E-06
    11.540      0.28290E-06
    11.560      0.28594E-06
    11.580      0.28901E-06
    11.600      0.29210E-06
    11.620      0.29522E-06
    11.640      0.29837E-06
    11.660      0.30154E-06
    11.680      0.30474E-06
    11.700      0.30796E-06
    11.720      0.31121E-06
    11.740      0.31449E-06
    11.760      0.31779E-06
    11.780      0.32113E-06
    11.800      0.32449E-06
    11.820      0.32787E-06
    11.840      0.33129E-06
    11.860      0.33473E-06
    11.880      0.33820E-06
    11.900      0.34169E-06
    11.920      0.34566E-06
    11.940      0.35044E-06
    11.960      0.35529E-06
    11.980      0.36018E-06
    12.000      0.36513E-06
    12.020      0.37013E-06
    12.040      0.37520E-06
    12.060      0.38032E-06
    12.080      0.38549E-06
    12.100      0.39072E-06
    12.120      0.39640E-06
    12.140      0.40231E-06
    12.160      0.40830E-06
    12.180      0.41435E-06
    12.200      0.42048E-06
    12.220      0.42669E-06
    12.240      0.43296E-06
    12.260      0.43932E-06
    12.280      0.44574E-06
    12.300      0.45225E-06
    12.320      0.45883E-06
    12.340      0.46549E-06
    12.360      0.47223E-06
    12.380      0.47905E-06
    12.400      0.48595E-06
    12.420      0.49293E-06
    12.440      0.49999E-06
    12.460      0.50714E-06
    12.480      0.51437E-06
    12.500      0.52168E-06
    12.520      0.52908E-06
    12.540      0.53656E-06
    12.560      0.54413E-06
    12.580      0.55179E-06
    12.600      0.55953E-06
    12.620      0.56736E-06
    12.640      0.57529E-06
    12.660      0.58329E-06
    12.680      0.59140E-06
    12.700      0.59959E-06
    12.720      0.60788E-06
    12.740      0.61626E-06
    12.760      0.62472E-06
    12.780      0.63329E-06
    12.800      0.64195E-06
    12.820      0.65071E-06
    12.840      0.65957E-06
    12.860      0.66852E-06
    12.880      0.67757E-06
    12.900      0.68672E-06
    12.920      0.69597E-06
    12.940      0.70533E-06
    12.960      0.71478E-06
    12.980      0.72434E-06
    13.000      0.73400E-06
    13.020      0.74377E-06
    13.040      0.75364E-06
    13.060      0.76362E-06
    13.080      0.77371E-06
    13.100      0.78390E-06
    13.120      0.79420E-06
    13.140      0.80461E-06
    13.160      0.81513E-06
    13.180      0.82576E-06
    13.200      0.83651E-06
    13.220      0.84737E-06
    13.240      0.85834E-06
    13.260      0.86943E-06
    13.280      0.88064E-06
    13.300      0.89196E-06
    13.320      0.90339E-06
    13.340      0.91495E-06
    13.360      0.92662E-06
    13.380      0.93842E-06
    13.400      0.95034E-06
    13.420      0.96238E-06
    13.440      0.97454E-06
    13.460      0.98683E-06
    13.480      0.99925E-06
    13.500      0.10118E-05
    13.520      0.10244E-05
    13.540      0.10372E-05
    13.560      0.10502E-05
    13.580      0.10632E-05
    13.600      0.10764E-05
    13.620      0.10897E-05
    13.640      0.11032E-05
    13.660      0.11167E-05
    13.680      0.11305E-05
    13.700      0.11443E-05
    13.720      0.11583E-05
    13.740      0.11724E-05
    13.760      0.11867E-05
    13.780      0.12011E-05
    13.800      0.12156E-05
    13.820      0.12303E-05
    13.840      0.12452E-05
    13.860      0.12601E-05
    13.880      0.12752E-05
    13.900      0.12905E-05
    13.920      0.13059E-05
    13.940      0.13215E-05
    13.960      0.13372E-05
    13.980      0.13530E-05
    14.000      0.13691E-05
    14.020      0.13852E-05
    14.040      0.14015E-05
    14.060      0.14180E-05
    14.080      0.14346E-05
    14.100      0.14514E-05
    14.120      0.14683E-05
    14.140      0.14854E-05
    14.160      0.15027E-05
    14.180      0.15201E-05
    14.200      0.15377E-05
    14.220      0.15652E-05
    14.240      0.16094E-05
    14.260      0.16547E-05
    14.280      0.17012E-05
    14.300      0.17487E-05
    14.320      0.17974E-05
    14.340      0.18473E-05
    14.360      0.18984E-05
    14.380      0.19506E-05
    14.400      0.20042E-05
    14.420      0.20591E-05
    14.440      0.21152E-05
    14.460      0.21993E-05
    14.480      0.22898E-05
    14.500      0.23836E-05
    14.520      0.24808E-05
    14.540      0.25815E-05
    14.560      0.26858E-05
    14.580      0.27939E-05
    14.600      0.29058E-05
    14.620      0.30216E-05
    14.640      0.31415E-05
    14.660      0.32655E-05
    14.680      0.33940E-05
    14.700      0.35269E-05
    14.720      0.36643E-05
    14.740      0.38065E-05
    14.760      0.39535E-05
    14.780      0.41055E-05
    14.800      0.42626E-05
    14.820      0.44251E-05
    14.840      0.45929E-05
    14.860      0.47665E-05
    14.880      0.49456E-05
    14.900      0.51308E-05
    14.920      0.53220E-05
    14.940      0.55196E-05
    14.960      0.57234E-05
    14.980      0.59340E-05
    15.000      0.61513E-05
    15.020      0.63755E-05
    15.040      0.66070E-05
    15.060      0.68458E-05
    15.080      0.70921E-05
    15.100      0.73462E-05
    15.120      0.76081E-05
    15.140      0.78784E-05
    15.160      0.81573E-05
    15.180      0.84460E-05
    15.200      0.87436E-05
    15.220      0.90504E-05
    15.240      0.93666E-05
    15.260      0.96923E-05
    15.280      0.10028E-04
    15.300      0.10374E-04
    15.320      0.10730E-04
    15.340      0.11097E-04
    15.360      0.11474E-04
    15.380      0.11863E-04
    15.400      0.12264E-04
    15.420      0.12714E-04
    15.440      0.13179E-04
    15.460      0.13658E-04
    15.480      0.14153E-04
    15.500      0.14663E-04
    15.520      0.15189E-04
    15.540      0.15732E-04
    15.560      0.16291E-04
    15.580      0.16867E-04
    15.600      0.17462E-04
    15.620      0.18074E-04
    15.640      0.18705E-04
    15.660      0.19356E-04
    15.680      0.20025E-04
    15.700      0.20715E-04
    15.720      0.21426E-04
    15.740      0.22157E-04
    15.760      0.22911E-04
    15.780      0.23686E-04
    15.800      0.24484E-04
    15.820      0.25305E-04
    15.840      0.26150E-04
    15.860      0.27019E-04
    15.880      0.27913E-04
    15.900      0.28833E-04
    15.920      0.29779E-04
    15.940      0.30752E-04
    15.960      0.31752E-04
    15.980      0.32780E-04
    16.000      0.33836E-04
    16.020      0.34922E-04
    16.040      0.36038E-04
    16.060      0.37185E-04
    16.080      0.38363E-04
    16.100      0.39573E-04
    16.120      0.40815E-04
    16.140      0.42090E-04
    16.160      0.43400E-04
    16.180      0.44745E-04
    16.200      0.46126E-04
    16.220      0.47542E-04
    16.240      0.48997E-04
    16.260      0.50489E-04
    16.280      0.52020E-04
    16.300      0.53591E-04
    16.320      0.55201E-04
    16.340      0.56854E-04
    16.360      0.58548E-04
    16.380      0.60285E-04
    16.400      0.62066E-04
    16.420      0.63893E-04
    16.440      0.65765E-04
    16.460      0.67683E-04
    16.480      0.69649E-04
    16.500      0.71664E-04
    16.520      0.73728E-04
    16.540      0.75842E-04
    16.560      0.78008E-04
    16.580      0.80227E-04
    16.600      0.82499E-04
    16.620      0.84825E-04
    16.640      0.87206E-04
    16.660      0.89645E-04
    16.680      0.92141E-04
    16.700      0.94695E-04
    16.720      0.97310E-04
    16.740      0.99986E-04
    16.760      0.10272E-03
    16.780      0.10552E-03
    16.800      0.10839E-03
    16.820      0.11132E-03
    16.840      0.11432E-03
    16.860      0.11738E-03
    16.880      0.12052E-03
    16.900      0.12373E-03
    16.920      0.12700E-03
    16.940      0.13035E-03
    16.960      0.13378E-03
    16.980      0.13728E-03
    17.000      0.14085E-03
    17.020      0.14451E-03
    17.040      0.40141E-02
    17.060      0.14109    
    17.080      0.45949    
    17.100      0.45991    
    17.120      0.46032    
    17.140      0.46073    
    17.160      0.46115    
    17.180      0.46156    
    17.200      0.46197    
    17.220      0.46238    
    17.240      0.46279    
    17.260      0.46320    
    17.280      0.46361    
    17.300      0.46402    
    17.320      0.46443    
    17.340      0.46483    
    17.360      0.46524    
    17.380      0.46565    
    17.400      0.46605    
    17.420      0.46646    
    17.440      0.46686    
    17.460      0.46727    
    17.480      0.46767    
    17.500      0.46807    
    17.520      0.46847    
    17.540      0.46888    
    17.560      0.46928    
    17.580      0.46968    
    17.600      0.47008    
    17.620      0.47048    
    17.640      0.47088    
    17.660      0.47127    
    17.680      0.47167    
    17.700      0.47207    
    17.720      0.47247    
    17.740      0.47286    
    17.760      0.47326    
    17.780      0.47365    
    17.800      0.47405    
    17.820      0.47444    
    17.840      0.47483    
    17.860      0.47523    
    17.880      0.47562    
    17.900      0.47601    
    17.920      0.47640    
    17.940      0.47679    
    17.960      0.47718    
    17.980      0.47757    
    18.000      0.47796    
    18.020      0.47835    
    18.040      0.47874    
    18.060      0.47912    
    18.080      0.47951    
    18.100      0.47991    
    18.120      0.48030    
    18.140      0.48070    
    18.160      0.48109    
    18.180      0.48149    
    18.200      0.48188    
    18.220      0.48228    
    18.240      0.48267    
    18.260      0.48306    
    18.280      0.48345    
    18.300      0.48384    
    18.320      0.48424    
    18.340      0.48463    
    18.360      0.48502    
    18.380      0.48544    
    18.400      0.48591    
    18.420      0.48638    
    18.440      0.48685    
    18.460      0.48732    
    18.480      0.48779    
    18.500      0.48826    
    18.520      0.48873    
    18.540      0.48919    
    18.560      0.48966    
    18.580      0.49012    
    18.600      0.49059    
    18.620      0.49105    
    18.640      0.49152    
    18.660      0.49198    
    18.680      0.49244    
    18.700      0.49290    
    18.720      0.49336    
    18.740      0.49382    
    18.760      0.49428    
    18.780      0.49474    
    18.800      0.49520    
    18.820      0.49566    
    18.840      0.49611    
    18.860      0.49657    
    18.880      0.49702    
    18.900      0.49748    
    18.920      0.49793    
    18.940      0.49839    
    18.960      0.49884    
    18.980      0.49929    
    19.000      0.49974    
    19.020      0.50019    
    19.040      0.50064    
    19.060      0.50109    
    19.080      0.50154    
    19.100      0.50199    
    19.120      0.50244    
    19.140      0.50288    
    19.160      0.50333    
    19.180      0.50378    
    19.200      0.50422    
    19.220      0.50467    
    19.240      0.50511    
    19.260      0.50555    
    19.280      0.50599    
    19.300      0.50637    
    19.320      0.50676    
    19.340      0.50714    
    19.360      0.50752    
    19.380      0.50791    
    19.400      0.50829    
    19.420      0.50867    
    19.440      0.50905    
    19.460      0.50943    
    19.480      0.50981    
    19.500      0.51019    
    19.520      0.51057    
    19.540      0.51094    
    19.560      0.51132    
    19.580      0.51170    
    19.600      0.51173    
    19.620      0.51142    
    19.640      0.51111    
    19.660      0.51081    
    19.680      0.51050    
    19.700      0.51019    
    19.720      0.50989    
    19.740      0.50958    
    19.760      0.50928    
    19.780      0.50897    
    19.800      0.50867    
    19.820      0.50836    
    19.840      0.50806    
    19.860      0.50776    
    19.880      0.50745    
    19.900      0.50715    
    19.920      0.50684    
    19.940      0.50654    
    19.960      0.50624    
    19.980      0.50594    
    20.000      0.50563 
20.060      0.50473    
    20.120      0.50382    
    20.180      0.50292    
    20.240      0.50202    
    20.300      0.50112    
    20.360      0.50022    
    20.420      0.49933    
    20.480      0.49844    
    20.540      0.49755    
    20.600      0.49651    
    20.660      0.49542    
    20.720      0.49434    
    20.780      0.49326    
    20.840      0.49218    
    20.900      0.49101    
    20.960      0.48943    
    21.020      0.48786    
    21.080      0.48630    
    21.140      0.48473    
    21.200      0.48317    
    21.260      0.48160    
    21.320      0.48005    
    21.380      0.47849    
    21.440      0.47694    
    21.500      0.47539    
    21.560      0.47384    
    21.620      0.47229    
    21.680      0.47075    
    21.740      0.46921    
    21.800      0.46767    
    21.860      0.46614    
    21.920      0.46460    
    21.980      0.46307    
    22.040      0.46155    
    22.100      0.46002    
    22.160      0.45850    
    22.220      0.45698    
    22.280      0.45547    
    22.340      0.45395    
    22.400      0.45244    
    22.460      0.45093    
    22.520      0.44943    
    22.580      0.44793    
    22.640      0.44643    
    22.700      0.44493    
    22.760      0.44343    
    22.820      0.44194    
    22.880      0.44045    
    22.940      0.43897    
    23.000      0.43748    
    23.060      0.43584    
    23.120      0.43421    
    23.180      0.43257    
    23.240      0.43094    
    23.300      0.42932    
    23.360      0.42769    
    23.420      0.42588    
    23.480      0.42402    
    23.540      0.42217    
    23.600      0.42032    
    23.660      0.41847    
    23.720      0.41663    
    23.780      0.41479    
    23.840      0.41295    
    23.900      0.41112    
    23.960      0.40929    
    24.020      0.40746    
    24.080      0.40564    
    24.140      0.40382    
    24.200      0.40201    
    24.260      0.40020    
    24.320      0.39839    
    24.380      0.39658    
    24.440      0.39479    
    24.500      0.39299    
    24.560      0.39120    
    24.620      0.38941    
    24.680      0.38763    
    24.740      0.38585    
    24.800      0.38407    
    24.860      0.38230    
    24.920      0.38053    
    24.980      0.37876    
    25.040      0.37700    
    25.100      0.37525    
    25.160      0.37349    
    25.220      0.37174    
    25.280      0.37000    
    25.340      0.36826    
    25.400      0.36652    
    25.460      0.36479    
    25.520      0.36306    
    25.580      0.36134    
    25.640      0.35962    
    25.700      0.35790    
    25.760      0.35636    
    25.820      0.35502    
    25.880      0.35368    
    25.940      0.35234    
    26.000      0.35101    
    26.060      0.34968    
    26.120      0.34836    
    26.180      0.34745    
    26.240      0.34694    
    26.300      0.34642    
    26.360      0.34591    
    26.420      0.34540    
    26.480      0.34489    
    26.540      0.34438    
    26.600      0.34387    
    26.660      0.34336    
    26.720      0.34286    
    26.780      0.34235    
    26.840      0.34185    
    26.900      0.34135    
    26.960      0.34085    
    27.020      0.34035    
    27.080      0.33985    
    27.140      0.33935    
    27.200      0.33885    
    27.260      0.33836    
    27.320      0.33786    
    27.380      0.33737    
    27.440      0.33688    
    27.500      0.33639    
    27.560      0.33590    
    27.620      0.33541    
    27.680      0.33492    
    27.740      0.33443    
    27.800      0.33395    
    27.860      0.33347    
    27.920      0.33298    
    27.980      0.33250    
    28.040      0.33202    
    28.100      0.33154    
    28.160      0.33106    
    28.220      0.33058    
    28.280      0.33011    
    28.340      0.32963    
    28.400      0.32916    
    28.460      0.32868    
    28.520      0.32821    
    28.580      0.32774    
    28.640      0.32727    
    28.700      0.32680    
    28.760      0.32633    
    28.820      0.32587    
    28.880      0.32540    
    28.940      0.32494    
    29.000      0.32447    
    29.060      0.32401    
    29.120      0.32355    
    29.180      0.32309    
    29.240      0.32263    
    29.300      0.32217    
    29.360      0.32171    
    29.420      0.32126    
    29.480      0.32080    
    29.540      0.32034    
    29.600      0.31989    
    29.660      0.31944    
    29.720      0.31899    
    29.780      0.31854    
    29.840      0.31809    
    29.900      0.31764    
    29.960      0.31719    
    30.020      0.31674    
    30.080      0.31630    
    30.140      0.31585    
    30.200      0.31541    
    30.260      0.31512    
    30.320      0.31486    
    30.380      0.31460    
    30.440      0.31435    
    30.500      0.31409    
    30.560      0.31384    
    30.620      0.31358    
    30.680      0.31333    
    30.740      0.31310    
    30.800      0.31289    
    30.860      0.31268    
    30.920      0.31247    
    30.980      0.31226    
    31.040      0.31205    
    31.100      0.31185    
    31.160      0.31164    
    31.220      0.31143    
    31.280      0.31122    
    31.340      0.31102    
    31.400      0.31081    
    31.460      0.31060    
    31.520      0.31040    
    31.580      0.31019    
    31.640      0.30999    
    31.700      0.30978    
    31.760      0.30958    
    31.820      0.30938    
    31.880      0.30917    
    31.940      0.30897    
    32.000      0.30877    
    32.060      0.30857    
    32.120      0.30836    
    32.180      0.30816    
    32.240      0.30796    
    32.300      0.30776    
    32.360      0.30756    
    32.420      0.30736    
    32.480      0.30716    
    32.540      0.30696    
    32.600      0.30677    
    32.660      0.30657    
    32.720      0.30637    
    32.780      0.30617    
    32.840      0.30598    
    32.900      0.30578    
    32.960      0.30558    
    33.020      0.30539    
    33.080      0.30519    
    33.140      0.30500    
    33.200      0.30480    
    33.260      0.30461    
    33.320      0.30441    
    33.380      0.30422    
    33.440      0.30403    
    33.500      0.30384    
    33.560      0.30364    
    33.620      0.30345    
    33.680      0.30326    
    33.740      0.30307    
    33.800      0.30288    
    33.860      0.30269    
    33.920      0.30250    
    33.980      0.30231    
    34.040      0.30212    
    34.100      0.30193    
    34.160      0.30174    
    34.220      0.30155    
    34.280      0.30136    
    34.340      0.30118    
    34.400      0.30099    
    34.460      0.30080    
    34.520      0.30061    
    34.580      0.30043    
    34.640      0.30024    
    34.700      0.30006    
    34.760      0.29987    
    34.820      0.29969    
    34.880      0.29950    
    34.940      0.29932    
    35.000      0.29913    
    35.060      0.29895    
    35.120      0.29877    
    35.180      0.29858    
    35.240      0.29840    
    35.300      0.29822    
    35.360      0.29804    
    35.420      0.29785    
    35.480      0.29767    
    35.540      0.29749    
    35.600      0.29731    
    35.660      0.29713    
    35.720      0.29695    
    35.780      0.29677    
    35.840      0.29659    
    35.900      0.29641    
    35.960      0.29623    
    36.020      0.29605    
    36.080      0.29588    
    36.140      0.29570    
    36.200      0.29552    
    36.260      0.29534    
    36.320      0.29517    
    36.380      0.29499    
    36.440      0.29481    
    36.500      0.29464    
    36.560      0.29446    
    36.620      0.29429    
    36.680      0.29411    
    36.740      0.29394    
    36.800      0.29376    
    36.860      0.29359    
    36.920      0.29341    
    36.980      0.29324    
    37.040      0.29307    
    37.100      0.29289    
    37.160      0.29272    
    37.220      0.29255    
    37.280      0.29238    
    37.340      0.29221    
    37.400      0.29203    
    37.460      0.29186    
    37.520      0.29169    
    37.580      0.29152    
    37.640      0.29135    
    37.700      0.29118    
    37.760      0.29101    
    37.820      0.29084    
    37.880      0.29089    
    37.940      0.29093    
    38.000      0.29097    
    38.060      0.29102    
    38.120      0.29106    
    38.180      0.29111    
    38.240      0.29115    
    38.300      0.29119    
    38.360      0.29124    
    38.420      0.29128    
    38.480      0.29136    
    38.540      0.29146    
    38.600      0.29155    
    38.660      0.29164    
    38.720      0.29174    
    38.780      0.29183    
    38.840      0.29192    
    38.900      0.29201    
    38.960      0.29211    
    39.020      0.29220    
    39.080      0.29229    
    39.140      0.29238    
    39.200      0.29247    
    39.260      0.29256    
    39.320      0.29266    
    39.380      0.29275    
    39.440      0.29284    
    39.500      0.29293    
    39.560      0.29302    
    39.620      0.29311    
    39.680      0.29320    
    39.740      0.29329    
    39.800      0.29338    
    39.860      0.29347    
    39.920      0.29356    
    39.980      0.29365    
    40.040      0.29374    
    40.100      0.29383    
    40.160      0.29392    
    40.220      0.29401    
    40.280      0.29410    
    40.340      0.29419    
    40.400      0.29428    
    40.460      0.29437    
    40.520      0.29446    
    40.580      0.29455    
    40.640      0.29463    
    40.700      0.29472    
    40.760      0.29481    
    40.820      0.29490    
    40.880      0.29499    
    40.940      0.29508    
    41.000      0.29516    
    41.060      0.29525    
    41.120      0.29534    
    41.180      0.29543    
    41.240      0.29551    
    41.300      0.29560    
    41.360      0.29569    
    41.420      0.29577    
    41.480      0.29586    
    41.540      0.29595    
    41.600      0.29603    
    41.660      0.29612    
    41.720      0.29621    
    41.780      0.29629    
    41.840      0.29638    
    41.900      0.29647    
    41.960      0.29655    
    42.020      0.29664    
    42.080      0.29672    
    42.140      0.29681    
    42.200      0.29689    
    42.260      0.29698    
    42.320      0.29706    
    42.380      0.29715    
    42.440      0.29723    
    42.500      0.29732    
    42.560      0.29740    
    42.620      0.29749    
    42.680      0.29757    
    42.740      0.29766    
    42.800      0.29774    
    42.860      0.29783    
    42.920      0.29791    
    42.980      0.29799    
    43.040      0.29808    
    43.100      0.29816    
    43.160      0.29824    
    43.220      0.29833    
    43.280      0.29841    
    43.340      0.29849    
    43.400      0.29858    
    43.460      0.29866    
    43.520      0.29874    
    43.580      0.29883    
    43.640      0.29891    
    43.700      0.29899    
    43.760      0.29907    
    43.820      0.29916    
    43.880      0.29924    
    43.940      0.29932    
    44.000      0.29940    
    44.060      0.29949    
    44.120      0.29957    
    44.180      0.29965    
    44.240      0.29973    
    44.300      0.29981    
    44.360      0.29990    
    44.420      0.29998    
    44.480      0.30006    
    44.540      0.30014    
    44.600      0.30022    
    44.660      0.30030    
    44.720      0.30038    
    44.780      0.30046    
    44.840      0.30054    
    44.900      0.30062    
    44.960      0.30070    
    45.020      0.30078    
    45.080      0.30086    
    45.140      0.30094    
    45.200      0.30102    
    45.260      0.30110    
    45.320      0.30118    
    45.380      0.30126    
    45.440      0.30134    
    45.500      0.30142    
    45.560      0.30150    
    45.620      0.30158    
    45.680      0.30166    
    45.740      0.30174    
    45.800      0.30182    
    45.860      0.30190    
    45.920      0.30198    
    45.980      0.30205    
    46.040      0.30213    
    46.100      0.30221    
    46.160      0.30229    
    46.220      0.30237    
    46.280      0.30244    
    46.340      0.30252    
    46.400      0.30260    
    46.460      0.30268    
    46.520      0.30276    
    46.580      0.30283    
    46.640      0.30291    
    46.700      0.30299    
    46.760      0.30307    
    46.820      0.30314    
    46.880      0.30322    
    46.940      0.30330    
    47.000      0.30337    
    47.060      0.30345    
    47.120      0.30353    
    47.180      0.30360    
    47.240      0.30368    
    47.300      0.30376    
    47.360      0.30383    
    47.420      0.30391    
    47.480      0.30399    
    47.540      0.30406    
    47.600      0.30414    
    47.660      0.30421    
    47.720      0.30429    
    47.780      0.30437    
    47.840      0.30444    
    47.900      0.30452    
    47.960      0.30459    
    48.020      0.30467    
    48.080      0.30474    
    48.140      0.30493    
    48.200      0.30523    
    48.260      0.30554    
    48.320      0.30584    
    48.380      0.30614    
    48.440      0.30645    
    48.500      0.30675    
    48.560      0.30705    
    48.620      0.30735    
    48.680      0.30765    
    48.740      0.30795    
    48.800      0.30825    
    48.860      0.30855    
    48.920      0.30888    
    48.980      0.30923    
    49.040      0.30958    
    49.100      0.30992    
    49.160      0.31027    
    49.220      0.31062    
    49.280      0.31097    
    49.340      0.31131    
    49.400      0.31166    
    49.460      0.31200    
    49.520      0.31235    
    49.580      0.31269    
    49.640      0.31304    
    49.700      0.31338    
    49.760      0.31373    
    49.820      0.31407    
    49.880      0.31441    
    49.940      0.31476    
    50.000      0.31510    
50.000      0.31510    
    50.100      0.31567    
    50.200      0.31624    
    50.300      0.31681    
    50.400      0.31737    
    50.500      0.31794    
    50.600      0.31851    
    50.700      0.31907    
    50.800      0.31963    
    50.900      0.32020    
    51.000      0.32076    
    51.100      0.32132    
    51.200      0.32188    
    51.300      0.32244    
    51.400      0.32299    
    51.500      0.32355    
    51.600      0.32411    
    51.700      0.32466    
    51.800      0.32521    
    51.900      0.32577    
    52.000      0.32632    
    52.100      0.32687    
    52.200      0.32742    
    52.300      0.32797    
    52.400      0.32851    
    52.500      0.32906    
    52.600      0.32961    
    52.700      0.33015    
    52.800      0.33070    
    52.900      0.33124    
    53.000      0.33169    
    53.100      0.33189    
    53.200      0.33210    
    53.300      0.33230    
    53.400      0.33250    
    53.500      0.33270    
    53.600      0.33290    
    53.700      0.33311    
    53.800      0.33331    
    53.900      0.33323    
    54.000      0.33303    
    54.100      0.33284    
    54.200      0.33264    
    54.300      0.33245    
    54.400      0.33225    
    54.500      0.33206    
    54.600      0.33186    
    54.700      0.33167    
    54.800      0.33147    
    54.900      0.33128    
    55.000      0.33109    
    55.100      0.33089    
    55.200      0.33070    
    55.300      0.33051    
    55.400      0.33032    
    55.500      0.33013    
    55.600      0.32994    
    55.700      0.32974    
    55.800      0.32955    
    55.900      0.32937    
    56.000      0.32918    
    56.100      0.32899    
    56.200      0.32880    
    56.300      0.32861    
    56.400      0.32842    
    56.500      0.32823    
    56.600      0.32805    
    56.700      0.32786    
    56.800      0.32767    
    56.900      0.32749    
    57.000      0.32730    
    57.100      0.32711    
    57.200      0.32693    
    57.300      0.32674    
    57.400      0.32656    
    57.500      0.32637    
    57.600      0.32619    
    57.700      0.32601    
    57.800      0.32582    
    57.900      0.32564    
    58.000      0.32546    
    58.100      0.32527    
    58.200      0.32509    
    58.300      0.32491    
    58.400      0.32473    
    58.500      0.32455    
    58.600      0.32437    
    58.700      0.32419    
    58.800      0.32401    
    58.900      0.32383    
    59.000      0.32365    
    59.100      0.32347    
    59.200      0.32329    
    59.300      0.32311    
    59.400      0.32293    
    59.500      0.32276    
    59.600      0.32258    
    59.700      0.32240    
    59.800      0.32222    
    59.900      0.32205    
    60.000      0.32187    
    60.100      0.32169    
    60.200      0.32152    
    60.300      0.32134    
    60.400      0.32117    
    60.500      0.32099    
    60.600      0.32082    
    60.700      0.32064    
    60.800      0.32047    
    60.900      0.32030    
    61.000      0.32012    
    61.100      0.31995    
    61.200      0.31978    
    61.300      0.31771    
    61.400      0.31559    
    61.500      0.31348    
    61.600      0.31138    
    61.700      0.30928    
    61.800      0.30719    
    61.900      0.30510    
    62.000      0.30302    
    62.100      0.30094    
    62.200      0.29884    
    62.300      0.29643    
    62.400      0.29403    
    62.500      0.29163    
    62.600      0.28924    
    62.700      0.28686    
    62.800      0.28449    
    62.900      0.28212    
    63.000      0.27976    
    63.100      0.27741    
    63.200      0.27507    
    63.300      0.27273    
    63.400      0.27041    
    63.500      0.26809    
    63.600      0.26578    
    63.700      0.26348    
    63.800      0.26119    
    63.900      0.25890    
    64.000      0.25663    
    64.100      0.25436    
    64.200      0.25211    
    64.300      0.24986    
    64.400      0.24762    
    64.500      0.24539    
    64.600      0.24317    
    64.700      0.24096    
    64.800      0.23876    
    64.900      0.23657    
    65.000      0.23438    
    65.100      0.23221    
    65.200      0.23005    
    65.300      0.22790    
    65.400      0.22576    
    65.500      0.22364    
    65.600      0.22152    
    65.700      0.21941    
    65.800      0.21732    
    65.900      0.21523    
    66.000      0.21316    
    66.100      0.21109    
    66.200      0.20903    
    66.300      0.20699    
    66.400      0.20507    
    66.500      0.20318    
    66.600      0.20130    
    66.700      0.19943    
    66.800      0.19757    
    66.900      0.19572    
    67.000      0.19388    
    67.100      0.19204    
    67.200      0.19022    
    67.300      0.18841    
    67.400      0.18660    
    67.500      0.18481    
    67.600      0.18303    
    67.700      0.18125    
    67.800      0.17949    
    67.900      0.17773    
    68.000      0.17599    
    68.100      0.17425    
    68.200      0.17253    
    68.300      0.17081    
    68.400      0.16911    
    68.500      0.16741    
    68.600      0.16573    
    68.700      0.16405    
    68.800      0.16239    
    68.900      0.16073    
    69.000      0.15909    
    69.100      0.15745    
    69.200      0.15583    
    69.300      0.15421    
    69.400      0.15261    
    69.500      0.15102    
    69.600      0.14943    
    69.700      0.14786    
    69.800      0.14629    
    69.900      0.14474    
    70.000      0.14320    
    70.100      0.14166    
    70.200      0.14014    
    70.300      0.13863    
    70.400      0.13712    
    70.500      0.13563    
    70.600      0.13415    
    70.700      0.13268    
    70.800      0.13066    
    70.900      0.12859    
    71.000      0.12654    
    71.100      0.12451    
    71.200      0.12250    
    71.300      0.12051    
    71.400      0.11854    
    71.500      0.11659    
    71.600      0.11466    
    71.700      0.11275    
    71.800      0.11086    
    71.900      0.10890    
    72.000      0.10687    
    72.100      0.10486    
    72.200      0.10287    
    72.300      0.10091    
    72.400      0.98967E-01
    72.500      0.97052E-01
    72.600      0.95160E-01
    72.700      0.93293E-01
    72.800      0.91449E-01
    72.900      0.89629E-01
    73.000      0.87833E-01
    73.100      0.86043E-01
    73.200      0.84274E-01
    73.300      0.82529E-01
    73.400      0.80808E-01
    73.500      0.79112E-01
    73.600      0.77439E-01
    73.700      0.75790E-01
    73.800      0.74165E-01
    73.900      0.72564E-01
    74.000      0.70987E-01
    74.100      0.69433E-01
    74.200      0.67877E-01
    74.300      0.65414E-01
    74.400      0.63013E-01
    74.500      0.60671E-01
    74.600      0.58390E-01
    74.700      0.56167E-01
    74.800      0.54003E-01
    74.900      0.51898E-01
    75.000      0.49850E-01
    75.100      0.47860E-01
    75.200      0.45926E-01
    75.300      0.44048E-01
    75.400      0.42226E-01
    75.500      0.40478E-01
    75.600      0.38782E-01
    75.700      0.37139E-01
    75.800      0.35546E-01
    75.900      0.34004E-01
    76.000      0.32512E-01
    76.100      0.31068E-01
    76.200      0.29673E-01
    76.300      0.28324E-01
    76.400      0.27022E-01
    76.500      0.25766E-01
    76.600      0.24554E-01
    76.700      0.23460E-01
    76.800      0.22419E-01
    76.900      0.21413E-01
    77.000      0.20443E-01
    77.100      0.19506E-01
    77.200      0.18603E-01
    77.300      0.17733E-01
    77.400      0.16895E-01
    77.500      0.16089E-01
    77.600      0.15312E-01
    77.700      0.14566E-01
    77.800      0.13849E-01
    77.900      0.13159E-01
    78.000      0.12498E-01
    78.100      0.11863E-01
    78.200      0.11254E-01
    78.300      0.10670E-01
    78.400      0.10111E-01
    78.500      0.95762E-02
    78.600      0.90642E-02
    78.700      0.85746E-02
    78.800      0.81067E-02
    78.900      0.76598E-02
    79.000      0.72333E-02
    79.100      0.68264E-02
    79.200      0.63632E-02
    79.300      0.59131E-02
    79.400      0.54896E-02
    79.500      0.50913E-02
    79.600      0.47173E-02
    79.700      0.43663E-02
    79.800      0.40373E-02
    79.900      0.37294E-02
    80.000      0.34413E-02
    80.100      0.31721E-02
    80.200      0.29209E-02
    80.300      0.26867E-02
    80.400      0.24595E-02
    80.500      0.20930E-02
    80.600      0.17738E-02
    80.700      0.14970E-02
    80.800      0.12579E-02
    80.900      0.10523E-02
    81.000      0.87638E-03
    81.100      0.72645E-03
    81.200      0.59933E-03
    81.300      0.49202E-03
    81.400      0.40192E-03
    81.500      0.32666E-03
    81.600      0.26410E-03
    81.700      0.21197E-03
    81.800      0.16218E-03
    81.900      0.12308E-03
    82.000      0.92635E-04
    82.100      0.69124E-04
    82.200      0.51122E-04
    82.300      0.37465E-04
    82.400      0.27201E-04
    82.500      0.19559E-04
    82.600      0.13925E-04
    82.700      0.98139E-05
    82.800      0.68436E-05
    82.900      0.47209E-05
    83.000      0.32208E-05
    83.100      0.21413E-05
    83.200      0.14014E-05
    83.300      0.90521E-06
    83.400      0.57679E-06
    83.500      0.36240E-06
    83.600      0.22443E-06
    83.700      0.13693E-06
    83.800      0.82269E-07
    83.900      0.48658E-07
    84.000      0.28315E-07
    84.100      0.16204E-07
    84.200      0.91147E-08
    84.300      0.50363E-08
    84.400      0.29387E-08
    84.500      0.18821E-08
    84.600      0.11939E-08
    84.700      0.75010E-09
    84.800      0.46652E-09
    84.900      0.28724E-09
    85.000      0.17504E-09
    85.100      0.10554E-09
    85.200      0.62961E-10
    85.300      0.37142E-10
    85.400      0.21669E-10
    85.500      0.12499E-10
    85.600      0.71249E-11
    85.700      0.40137E-11
    85.800      0.30259E-11
    85.900      0.25046E-11
    86.000      0.20709E-11
    86.100      0.17103E-11
    86.200      0.14109E-11
    86.300      0.11625E-11
    86.400      0.95685E-12
    86.500      0.78662E-12
    86.600      0.64594E-12
    86.700      0.52981E-12
    86.800      0.43403E-12
    86.900      0.35516E-12
    87.000      0.29028E-12
    87.100      0.23697E-12
    87.200      0.20651E-12
    87.300      0.18128E-12
    87.400      0.15907E-12
    87.500      0.13952E-12
    87.600      0.12232E-12
    87.700      0.10719E-12
    87.800      0.93897E-13
    87.900      0.82214E-13
    88.000      0.71953E-13
    88.100      0.62944E-13
    88.200      0.55040E-13
    88.300      0.48107E-13
    88.400      0.42029E-13
    88.500      0.36703E-13
    88.600      0.32161E-13
    88.700      0.28196E-13
    88.800      0.24710E-13
    88.900      0.21646E-13
    89.000      0.18954E-13
    89.100      0.16590E-13
    89.200      0.14514E-13
    89.300      0.12694E-13
    89.400      0.11097E-13
    89.500      0.96968E-14
    89.600      0.84699E-14
    89.700      0.73950E-14
    89.800      0.64540E-14
    89.900      0.56304E-14
    90.000      0.49502E-14
    90.100      0.43884E-14
    90.200      0.38893E-14
    90.300      0.34458E-14
    90.400      0.30520E-14
    90.500      0.27023E-14
    90.600      0.23920E-14
    90.700      0.21166E-14
    90.800      0.18724E-14
    90.900      0.16558E-14
    91.000      0.14639E-14
    91.100      0.12938E-14
    91.200      0.11431E-14
    91.300      0.10096E-14
    91.400      0.89145E-15
    91.500      0.79339E-15
    91.600      0.70632E-15
    91.700      0.62862E-15
    91.800      0.55933E-15
    91.900      0.49755E-15
    92.000      0.44248E-15
    92.100      0.39339E-15
    92.200      0.34967E-15
    92.300      0.31072E-15
    92.400      0.27603E-15
    92.500      0.24516E-15
    92.600      0.21768E-15
    92.700      0.19323E-15
    92.800      0.17148E-15
    92.900      0.15272E-15
    93.000      0.13893E-15
    93.100      0.12636E-15
    93.200      0.11491E-15
    93.300      0.10449E-15
    93.400      0.94994E-16
    93.500      0.86351E-16
    93.600      0.78482E-16
    93.700      0.71322E-16
    93.800      0.64804E-16
    93.900      0.58874E-16
    94.000      0.53478E-16
    94.100      0.48571E-16
    94.200      0.44107E-16
    94.300      0.40047E-16
    94.400      0.36368E-16
    94.500      0.33092E-16
    94.600      0.30107E-16
    94.700      0.27388E-16
    94.800      0.24911E-16
    94.900      0.22655E-16
    95.000      0.20601E-16
    95.100      0.18730E-16
    95.200      0.17027E-16
    95.300      0.15476E-16
    95.400      0.14065E-16
    95.500      0.12781E-16
    95.600      0.11613E-16
    95.700      0.10550E-16
    95.800      0.95825E-17
    95.900      0.87028E-17
    96.000      0.79029E-17
    96.100      0.71755E-17
    96.200      0.65142E-17
    96.300      0.59130E-17
    96.400      0.53667E-17
    96.500      0.48700E-17
    96.600      0.44188E-17
    96.700      0.40089E-17
    96.800      0.36364E-17
    96.900      0.32981E-17
    97.000      0.29909E-17
    97.100      0.27119E-17
    97.200      0.24586E-17
    97.300      0.22287E-17
    97.400      0.20200E-17
    97.500      0.18342E-17
    97.600      0.16712E-17
    97.700      0.15226E-17
    97.800      0.13871E-17
    97.900      0.12634E-17
    98.000      0.11507E-17
    98.100      0.10479E-17
    98.200      0.95412E-18
    98.300      0.86866E-18
    98.400      0.79077E-18
    98.500      0.71978E-18
    98.600      0.65509E-18
    98.700      0.59615E-18
    98.800      0.54244E-18
    98.900      0.49351E-18
    99.000      0.44894E-18
    99.100      0.41372E-18
    99.200      0.38469E-18
    99.300      0.35767E-18
    99.400      0.33254E-18
    99.500      0.30916E-18
    99.600      0.28741E-18
    99.700      0.26717E-18
    99.800      0.24834E-18
    99.900      0.23083E-18
    100.00      0.21455E-18
   
